age =   17.0    [Fe/H] =   -0.25

wavele(nm) log wave(A)   Hlam       log(Hlam/Hlam(V))  Hlam(mag(V)) 
      89.50   2.951823     0.6549E-13 -15.28051  38.20127
      90.50   2.956649     0.1327E-12 -14.97372  37.43430
      91.50   2.961421     0.2082E-12 -14.77826  36.94566
      92.50   2.966142     0.1722E-10 -12.86075  32.15187
      93.50   2.970812     0.2386E-10 -12.71909  31.79773
      94.50   2.975432     0.3462E-10 -12.55743  31.39358
      95.50   2.980003     0.5226E-10 -12.37857  30.94642
      96.50   2.984527     0.7679E-10 -12.21140  30.52849
      97.50   2.989005     0.1018E-09 -12.08885  30.22213
      98.50   2.993436     0.1454E-09 -11.93404  29.83509
      99.50   2.997823     0.1999E-09 -11.79593  29.48982
     100.50   3.002166     0.2944E-09 -11.62774  29.06934
     101.50   3.006466     0.3997E-09 -11.49493  28.73733
     102.50   3.010724     0.4509E-09 -11.44261  28.60654
     103.50   3.014940     0.7586E-09 -11.21667  28.04169
     104.50   3.019116     0.1055E-08 -11.07326  27.68314
     105.50   3.023252     0.1330E-08 -10.97298  27.43246
     106.50   3.027350     0.1820E-08 -10.83667  27.09166
     107.50   3.031409     0.2456E-08 -10.70653  26.76632
     108.50   3.035430     0.3328E-08 -10.57454  26.43635
     109.50   3.039414     0.4155E-08 -10.47812  26.19531
     110.50   3.043362     0.1925E-07  -9.81216  24.53041
     111.50   3.047275     0.3319E-07  -9.57567  23.93917
     112.50   3.051152     0.5017E-07  -9.39622  23.49055
     113.50   3.054996     0.7690E-07  -9.21079  23.02697
     114.50   3.058805     0.1025E-06  -9.08600  22.71500
     115.50   3.062582     0.1199E-06  -9.01783  22.54458
     116.50   3.066326     0.1592E-06  -8.89468  22.23669
     117.50   3.070038     0.2046E-06  -8.78570  21.96424
     118.50   3.073718     0.2176E-06  -8.75905  21.89762
     119.50   3.077368     0.1756E-06  -8.85212  22.13030
     120.50   3.080987     0.1656E-06  -8.87757  22.19394
     121.50   3.084576     0.3773E-07  -9.51998  23.79995
     122.50   3.088136     0.2228E-06  -8.74876  21.87189
     123.50   3.091667     0.5245E-06  -8.37694  20.94235
     124.50   3.095169     0.8079E-06  -8.18935  20.47337
     125.50   3.098644     0.1040E-05  -8.07981  20.19952
     126.50   3.102091     0.1160E-05  -8.03213  20.08033
     127.50   3.105510     0.1463E-05  -7.93144  19.82860
     128.50   3.108903     0.1724E-05  -7.86014  19.65036
     129.50   3.112270     0.2092E-05  -7.77616  19.44041
     130.50   3.115611     0.2269E-05  -7.74096  19.35240
     131.50   3.118926     0.2838E-05  -7.64362  19.10905
     132.50   3.122216     0.3019E-05  -7.61677  19.04193
     133.50   3.125481     0.3369E-05  -7.56918  18.92295
     134.50   3.128722     0.3990E-05  -7.49571  18.73927
     135.50   3.131939     0.4636E-05  -7.43056  18.57641
     136.50   3.135133     0.5025E-05  -7.39561  18.48903
     137.50   3.138303     0.5441E-05  -7.36106  18.40266
     138.50   3.141450     0.5992E-05  -7.31912  18.29781
     139.50   3.144574     0.6791E-05  -7.26480  18.16200
     140.50   3.147676     0.8187E-05  -7.18358  17.95896
     141.50   3.150756     0.9367E-05  -7.12512  17.81280
     142.50   3.153815     0.1073E-04  -7.06624  17.66560
     143.50   3.156852     0.1272E-04  -6.99229  17.48073
     144.20   3.158965     0.1658E-04  -6.87722  17.19305
     144.70   3.160469     0.1480E-04  -6.92642  17.31605
     145.50   3.162863     0.1748E-04  -6.85405  17.13512
     146.50   3.165838     0.2225E-04  -6.74938  16.87346
     147.50   3.168792     0.2544E-04  -6.69124  16.72811
     148.50   3.171726     0.2737E-04  -6.65948  16.64870
     149.50   3.174641     0.3600E-04  -6.54042  16.35106
     150.50   3.177536     0.4387E-04  -6.45450  16.13626
     151.20   3.179552     0.3324E-04  -6.57510  16.43776
     151.70   3.180986     0.4243E-04  -6.46899  16.17249
     152.50   3.183270     0.9692E-04  -6.11030  15.27574
     153.50   3.186108     0.1568E-03  -5.90137  14.75343
     154.50   3.188928     0.1293E-03  -5.98503  14.96259
     155.50   3.191730     0.2088E-03  -5.77697  14.44243
     156.50   3.194514     0.1977E-03  -5.80078  14.50196
     157.50   3.197281     0.3584E-03  -5.54232  13.85581
     158.50   3.200029     0.4337E-03  -5.45950  13.64875
     159.50   3.202761     0.5066E-03  -5.39201  13.48003
     160.50   3.205475     0.5432E-03  -5.36170  13.40426
     161.50   3.208173     0.6092E-03  -5.31196  13.27991
     162.50   3.210853     0.6787E-03  -5.26501  13.16252
     163.50   3.213518     0.8008E-03  -5.19319  12.98298
     164.50   3.216166     0.1128E-02  -5.04432  12.61081
     165.50   3.218798     0.7379E-03  -5.22870  13.07176
     166.50   3.221414     0.1304E-02  -4.98152  12.45381
     167.20   3.223236     0.9352E-03  -5.12581  12.81452
     167.70   3.224533     0.3341E-02  -4.57280  11.43201
     168.50   3.226600     0.3661E-02  -4.53315  11.33288
     169.50   3.229170     0.4446E-02  -4.44875  11.12187
     170.50   3.231725     0.4992E-02  -4.39845  10.99612
     171.50   3.234264     0.5469E-02  -4.35880  10.89699
     172.50   3.236789     0.6908E-02  -4.25735  10.64336
     173.50   3.239300     0.8854E-02  -4.14958  10.37394
     174.50   3.241796     0.1196E-01  -4.01892  10.04729
     175.50   3.244277     0.1736E-01  -3.85704   9.64260
     176.50   3.246745     0.1437E-01  -3.93926   9.84815
     177.50   3.249198     0.1703E-01  -3.86553   9.66383
     178.50   3.251638     0.2297E-01  -3.73552   9.33880
     179.50   3.254065     0.3086E-01  -3.60725   9.01812
     180.50   3.256477     0.3259E-01  -3.58365   8.95913
     181.50   3.258877     0.2755E-01  -3.65665   9.14163
     182.50   3.261263     0.3575E-01  -3.54341   8.85852
     183.50   3.263636     0.3686E-01  -3.53009   8.82523
     184.50   3.265996     0.2274E-01  -3.74000   9.34999
     185.50   3.268344     0.4246E-01  -3.46869   8.67171
     186.50   3.270679     0.5439E-01  -3.36119   8.40297
     187.50   3.273001     0.5686E-01  -3.34191   8.35478
     188.50   3.275311     0.6129E-01  -3.30933   8.27333
     189.50   3.277609     0.8286E-01  -3.17835   7.94587
     190.50   3.279895     0.7849E-01  -3.20187   8.00467
     191.50   3.282169     0.8910E-01  -3.14682   7.86704
     192.50   3.284431     0.7899E-01  -3.19915   7.99787
     193.50   3.286681     0.4575E-01  -3.43629   8.59073
     194.50   3.288920     0.1127E+00  -3.04496   7.61241
     195.50   3.291147     0.1181E+00  -3.02451   7.56128
     196.70   3.293804     0.1614E+00  -2.88870   7.22176
     197.60   3.295787     0.1394E+00  -2.95246   7.38115
     198.40   3.297542     0.1775E+00  -2.84755   7.11887
     199.50   3.299943     0.1943E+00  -2.80831   7.02078
     200.50   3.302114     0.1815E+00  -2.83771   7.09427
     201.50   3.304275     0.2007E+00  -2.79418   6.98546
     202.50   3.306425     0.1442E+00  -2.93767   7.34417
     203.50   3.308564     0.2246E+00  -2.74538   6.86345
     204.50   3.310693     0.2648E+00  -2.67385   6.68463
     205.50   3.312812     0.2596E+00  -2.68245   6.70613
     206.50   3.314920     0.2533E+00  -2.69311   6.73276
     207.40   3.316809     0.2819E+00  -2.64667   6.61668
     207.80   3.317646     0.8345E+00  -2.17530   5.43825
     208.50   3.319106     0.1107E+01  -2.05259   5.13147
     209.50   3.321184     0.9933E+00  -2.09961   5.24902
     210.50   3.323252     0.9648E+00  -2.11229   5.28071
     211.50   3.325310     0.1180E+01  -2.02472   5.06180
     212.50   3.327359     0.9974E+00  -2.09785   5.24461
     213.50   3.329398     0.9913E+00  -2.10050   5.25125
     214.50   3.331427     0.1352E+01  -1.96563   4.91407
     215.50   3.333447     0.1273E+01  -1.99192   4.97980
     216.50   3.335458     0.1053E+01  -2.07439   5.18598
     217.50   3.337459     0.1051E+01  -2.07518   5.18795
     218.50   3.339452     0.1544E+01  -1.90792   4.76979
     219.50   3.341434     0.1470E+01  -1.92930   4.82326
     220.50   3.343409     0.1459E+01  -1.93279   4.83196
     221.50   3.345374     0.1043E+01  -2.07842   5.19604
     222.50   3.347330     0.1393E+01  -1.95273   4.88182
     223.50   3.349277     0.2013E+01  -1.79277   4.48192
     224.50   3.351216     0.1909E+01  -1.81586   4.53966
     225.50   3.353147     0.1327E+01  -1.97369   4.93422
     226.50   3.355068     0.1122E+01  -2.04683   5.11706
     227.50   3.356982     0.1216E+01  -2.01165   5.02913
     228.50   3.358886     0.1977E+01  -1.80064   4.50160
     229.50   3.360783     0.1514E+01  -1.91671   4.79176
     230.50   3.362671     0.1995E+01  -1.79675   4.49188
     231.50   3.364551     0.1632E+01  -1.88408   4.71020
     232.50   3.366423     0.1380E+01  -1.95686   4.89214
     233.50   3.368287     0.1166E+01  -2.03008   5.07520
     234.50   3.370143     0.6965E+00  -2.25378   5.63446
     235.50   3.371991     0.1596E+01  -1.89374   4.73435
     236.50   3.373831     0.8218E+00  -2.18193   5.45484
     237.50   3.375664     0.1147E+01  -2.03706   5.09265
     238.50   3.377488     0.6106E+00  -2.31095   5.77736
     239.50   3.379306     0.8141E+00  -2.18603   5.46508
     240.50   3.381115     0.8496E+00  -2.16751   5.41879
     241.50   3.382917     0.1027E+01  -2.08495   5.21237
     242.50   3.384712     0.2087E+01  -1.77717   4.44292
     243.50   3.386499     0.2126E+01  -1.76911   4.42279
     244.50   3.388279     0.2673E+01  -1.66970   4.17424
     245.50   3.390052     0.2904E+01  -1.63378   4.08444
     246.50   3.391817     0.2289E+01  -1.73708   4.34270
     247.50   3.393575     0.1921E+01  -1.81318   4.53294
     248.50   3.395326     0.7817E+00  -2.20369   5.50921
     249.50   3.397071     0.1253E+01  -1.99884   4.99711
     250.50   3.398808     0.2209E+01  -1.75257   4.38143
     251.30   3.400192     0.7702E+00  -2.21007   5.52519
     251.80   3.401056     0.5206E+00  -2.38023   5.95059
     252.50   3.402261     0.6323E+00  -2.29578   5.73946
     253.50   3.403978     0.1527E+01  -1.91288   4.78220
     254.50   3.405688     0.1603E+01  -1.89180   4.72950
     255.50   3.407391     0.3743E+01  -1.52351   3.80877
     256.50   3.409087     0.2527E+01  -1.69415   4.23539
     257.50   3.410777     0.3537E+01  -1.54806   3.87015
     258.50   3.412461     0.3010E+01  -1.61809   4.04523
     259.50   3.414137     0.2647E+01  -1.67396   4.18491
     260.50   3.415808     0.2188E+01  -1.75670   4.39175
     261.50   3.417472     0.1920E+01  -1.81336   4.53339
     262.50   3.419129     0.2832E+01  -1.64456   4.11140
     263.50   3.420781     0.5902E+01  -1.32568   3.31420
     264.50   3.422426     0.8097E+01  -1.18840   2.97100
     265.50   3.424065     0.1233E+02  -1.00565   2.51412
     266.50   3.425697     0.7361E+01  -1.22978   3.07446
     267.50   3.427324     0.8370E+01  -1.17400   2.93499
     268.50   3.428944     0.1020E+02  -1.08799   2.71997
     269.50   3.430559     0.6676E+01  -1.27220   3.18050
     270.50   3.432167     0.8755E+01  -1.15445   2.88613
     271.50   3.433770     0.5823E+01  -1.33152   3.32881
     272.50   3.435366     0.3953E+01  -1.49982   3.74955
     273.50   3.436957     0.5628E+01  -1.34638   3.36595
     274.50   3.438542     0.3029E+01  -1.61537   4.03841
     275.50   3.440122     0.4559E+01  -1.43782   3.59455
     276.50   3.441695     0.6398E+01  -1.29066   3.22664
     277.50   3.443263     0.6710E+01  -1.26995   3.17488
     278.50   3.444825     0.3532E+01  -1.54862   3.87156
     279.50   3.446382     0.1432E+01  -1.94080   4.85200
     280.50   3.447933     0.1789E+01  -1.84401   4.61003
     281.50   3.449478     0.5619E+01  -1.34702   3.36756
     282.50   3.451018     0.8570E+01  -1.16373   2.90932
     283.50   3.452553     0.7559E+01  -1.21821   3.04553
     284.50   3.454082     0.4435E+01  -1.44985   3.62461
     285.50   3.455606     0.2081E+01  -1.77846   4.44614
     286.50   3.457125     0.6910E+01  -1.25720   3.14301
     287.50   3.458638     0.1110E+02  -1.05147   2.62867
     288.50   3.460146     0.1023E+02  -1.08664   2.71660
     289.50   3.461648     0.1372E+02  -0.95926   2.39815
     291.00   3.463893     0.1991E+02  -0.79765   1.99411
     293.00   3.466868     0.1797E+02  -0.84221   2.10553
     295.00   3.469822     0.1694E+02  -0.86774   2.16935
     297.00   3.472756     0.1767E+02  -0.84952   2.12379
     299.00   3.475671     0.1860E+02  -0.82718   2.06794
     301.00   3.478566     0.1850E+02  -0.82955   2.07389
     303.00   3.481443     0.2040E+02  -0.78715   1.96787
     305.00   3.484300     0.2138E+02  -0.76673   1.91682
     307.00   3.487138     0.2214E+02  -0.75157   1.87893
     309.00   3.489959     0.1985E+02  -0.79901   1.99753
     311.00   3.492760     0.2418E+02  -0.71323   1.78309
     313.00   3.495544     0.2161E+02  -0.76203   1.90507
     315.00   3.498311     0.2151E+02  -0.76405   1.91012
     317.00   3.501059     0.2477E+02  -0.70286   1.75714
     319.00   3.503791     0.2133E+02  -0.76773   1.91932
     321.00   3.506505     0.2374E+02  -0.72120   1.80300
     323.00   3.509202     0.2033E+02  -0.78866   1.97164
     325.00   3.511883     0.2987E+02  -0.62154   1.55384
     327.00   3.514548     0.3515E+02  -0.55084   1.37710
     329.00   3.517196     0.3442E+02  -0.55987   1.39968
     331.00   3.519828     0.3132E+02  -0.60082   1.50206
     333.00   3.522444     0.3257E+02  -0.58393   1.45982
     335.00   3.525045     0.3131E+02  -0.60100   1.50251
     337.00   3.527630     0.2179E+02  -0.75843   1.89607
     339.00   3.530200     0.2611E+02  -0.67988   1.69971
     341.00   3.532754     0.2739E+02  -0.65906   1.64766
     343.00   3.535294     0.3016E+02  -0.61726   1.54314
     345.00   3.537819     0.3277E+02  -0.58127   1.45317
     347.00   3.540329     0.3440E+02  -0.56011   1.40027
     349.00   3.542825     0.3896E+02  -0.50608   1.26520
     351.00   3.545307     0.4176E+02  -0.47598   1.18995
     353.00   3.547775     0.3721E+02  -0.52609   1.31523
     355.00   3.550228     0.4275E+02  -0.46576   1.16439
     357.00   3.552668     0.3036E+02  -0.61442   1.53606
     359.00   3.555094     0.3128E+02  -0.60144   1.50359
     361.00   3.557507     0.3968E+02  -0.49815   1.24538
     363.00   3.559907     0.4087E+02  -0.48528   1.21319
     364.00   3.561101     0.4198E+02  -0.47371   1.18428
     365.00   3.562293     0.4534E+02  -0.44027   1.10067
     367.00   3.564666     0.4897E+02  -0.40675   1.01688
     369.00   3.567026     0.4373E+02  -0.45594   1.13984
     371.00   3.569374     0.4578E+02  -0.43600   1.08999
     373.00   3.571709     0.2876E+02  -0.63784   1.59460
     375.00   3.574031     0.3325E+02  -0.57485   1.43714
     377.00   3.576341     0.4487E+02  -0.44476   1.11190
     379.00   3.578639     0.4614E+02  -0.43266   1.08165
     381.00   3.580925     0.4286E+02  -0.46463   1.16159
     383.00   3.583199     0.2295E+02  -0.73596   1.83991
     385.00   3.585461     0.3275E+02  -0.58156   1.45389
     387.00   3.587711     0.3194E+02  -0.59233   1.48082
     389.00   3.589950     0.4127E+02  -0.48112   1.20279
     391.00   3.592177     0.5071E+02  -0.39165   0.97913
     393.00   3.594393     0.2392E+02  -0.71788   1.79469
     395.00   3.596597     0.4443E+02  -0.44908   1.12269
     397.00   3.598790     0.3041E+02  -0.61368   1.53420
     399.00   3.600973     0.6733E+02  -0.26852   0.67129
     401.00   3.603144     0.7423E+02  -0.22615   0.56537
     403.00   3.605305     0.7279E+02  -0.23461   0.58653
     405.00   3.607455     0.6990E+02  -0.25222   0.63054
     407.00   3.609594     0.6587E+02  -0.27802   0.69505
     409.00   3.611723     0.8210E+02  -0.18234   0.45586
     411.00   3.613842     0.7709E+02  -0.20972   0.52429
     413.00   3.615950     0.7507E+02  -0.22124   0.55311
     415.00   3.618048     0.7299E+02  -0.23345   0.58363
     417.00   3.620136     0.7473E+02  -0.22323   0.55808
     419.00   3.622214     0.7230E+02  -0.23755   0.59386
     421.00   3.624282     0.7287E+02  -0.23416   0.58539
     423.00   3.626340     0.6850E+02  -0.26099   0.65248
     425.00   3.628389     0.7280E+02  -0.23457   0.58643
     427.00   3.630428     0.6834E+02  -0.26206   0.65515
     429.00   3.632457     0.6357E+02  -0.29343   0.73357
     431.00   3.634477     0.5436E+02  -0.36141   0.90353
     433.00   3.636488     0.8270E+02  -0.17920   0.44800
     435.00   3.638489     0.8226E+02  -0.18149   0.45374
     437.00   3.640481     0.8863E+02  -0.14910   0.37275
     439.00   3.642465     0.7861E+02  -0.20125   0.50312
     441.00   3.644439     0.8438E+02  -0.17045   0.42612
     443.00   3.646404     0.9255E+02  -0.13034   0.32584
     445.00   3.648360     0.9309E+02  -0.12779   0.31948
     447.00   3.650307     0.9988E+02  -0.09722   0.24305
     449.00   3.652246     0.1030E+03  -0.08400   0.21001
     451.00   3.654176     0.1165E+03  -0.03021   0.07552
     453.00   3.656098     0.1024E+03  -0.08630   0.21575
     455.00   3.658011     0.1079E+03  -0.06362   0.15905
     457.00   3.659916     0.1165E+03  -0.03020   0.07549
     459.00   3.661813     0.1096E+03  -0.05671   0.14179
     461.00   3.663701     0.1135E+03  -0.04178   0.10445
     463.00   3.665581     0.1112E+03  -0.05050   0.12624
     465.00   3.667453     0.1124E+03  -0.04593   0.11483
     467.00   3.669317     0.1174E+03  -0.02716   0.06791
     469.00   3.671173     0.1153E+03  -0.03489   0.08722
     471.00   3.673021     0.1129E+03  -0.04417   0.11042
     473.00   3.674861     0.1162E+03  -0.03165   0.07914
     475.00   3.676694     0.1188E+03  -0.02200   0.05501
     477.00   3.678518     0.1159E+03  -0.03252   0.08131
     479.00   3.680336     0.1170E+03  -0.02851   0.07128
     481.00   3.682145     0.1179E+03  -0.02521   0.06302
     483.00   3.683947     0.1211E+03  -0.01357   0.03393
     485.00   3.685742     0.1167E+03  -0.02978   0.07444
     487.00   3.687529     0.1078E+03  -0.06402   0.16004
     489.00   3.689309     0.1183E+03  -0.02358   0.05895
     491.00   3.691082     0.1192E+03  -0.02035   0.05088
     493.00   3.692847     0.1171E+03  -0.02802   0.07005
     495.00   3.694605     0.1213E+03  -0.01283   0.03207
     497.00   3.696356     0.1175E+03  -0.02672   0.06681
     499.00   3.698101     0.1097E+03  -0.05636   0.14090
     501.00   3.699838     0.1038E+03  -0.08064   0.20160
     503.00   3.701568     0.1107E+03  -0.05249   0.13123
     505.00   3.703291     0.1104E+03  -0.05373   0.13433
     507.00   3.705008     0.1150E+03  -0.03585   0.08962
     509.00   3.706718     0.1095E+03  -0.05733   0.14333
     511.00   3.708421     0.1119E+03  -0.04777   0.11944
     513.00   3.710117     0.1090E+03  -0.05932   0.14831
     515.00   3.711807     0.1050E+03  -0.07535   0.18838
     517.00   3.713490     0.9462E+02  -0.12070   0.30175
     519.00   3.715167     0.9880E+02  -0.10194   0.25484
     521.00   3.716838     0.1073E+03  -0.06595   0.16488
     523.00   3.718502     0.1177E+03  -0.02582   0.06455
     525.00   3.720159     0.1230E+03  -0.00676   0.01689
     527.00   3.721811     0.1084E+03  -0.06183   0.15458
     529.00   3.723456     0.1254E+03   0.00161  -0.00403
     531.00   3.725095     0.1328E+03   0.02651  -0.06627
     533.00   3.726727     0.1177E+03  -0.02583   0.06458
     535.00   3.728354     0.1291E+03   0.01423  -0.03557
     537.00   3.729974     0.1277E+03   0.00951  -0.02377
     539.00   3.731589     0.1256E+03   0.00229  -0.00572
     541.00   3.733197     0.1236E+03  -0.00465   0.01164
     543.00   3.734800     0.1254E+03   0.00170  -0.00424
     545.00   3.736397     0.1276E+03   0.00909  -0.02272
     547.00   3.737987     0.1253E+03   0.00108  -0.00271
     549.00   3.739572     0.1268E+03   0.00648  -0.01620
     551.00   3.741152     0.1249E+03   0.00000   0.00000
     553.00   3.742725     0.1296E+03   0.01593  -0.03982
     555.00   3.744293     0.1319E+03   0.02343  -0.05856
     557.00   3.745855     0.1288E+03   0.01307  -0.03267
     559.00   3.747412     0.1256E+03   0.00224  -0.00561
     561.00   3.748963     0.1294E+03   0.01532  -0.03830
     563.00   3.750508     0.1295E+03   0.01559  -0.03897
     565.00   3.752048     0.1318E+03   0.02307  -0.05767
     567.00   3.753583     0.1288E+03   0.01322  -0.03306
     569.00   3.755112     0.1326E+03   0.02576  -0.06440
     571.00   3.756636     0.1286E+03   0.01267  -0.03169
     573.00   3.758155     0.1385E+03   0.04473  -0.11182
     575.00   3.759668     0.1348E+03   0.03303  -0.08257
     577.00   3.761176     0.1362E+03   0.03745  -0.09363
     579.00   3.762679     0.1318E+03   0.02315  -0.05789
     581.00   3.764176     0.1364E+03   0.03806  -0.09516
     583.00   3.765669     0.1391E+03   0.04650  -0.11624
     585.00   3.767156     0.1342E+03   0.03103  -0.07756
     587.00   3.768638     0.1335E+03   0.02864  -0.07159
     589.00   3.770115     0.1183E+03  -0.02367   0.05917
     591.00   3.771587     0.1310E+03   0.02045  -0.05113
     593.00   3.773055     0.1325E+03   0.02545  -0.06361
     595.00   3.774517     0.1331E+03   0.02737  -0.06842
     597.00   3.775974     0.1355E+03   0.03518  -0.08794
     599.00   3.777427     0.1341E+03   0.03086  -0.07714
     601.00   3.778874     0.1327E+03   0.02633  -0.06582
     603.00   3.780317     0.1359E+03   0.03661  -0.09152
     605.00   3.781755     0.1386E+03   0.04510  -0.11275
     607.00   3.783189     0.1380E+03   0.04332  -0.10829
     609.00   3.784617     0.1345E+03   0.03187  -0.07969
     611.00   3.786041     0.1351E+03   0.03402  -0.08505
     613.00   3.787461     0.1287E+03   0.01278  -0.03196
     615.00   3.788875     0.1318E+03   0.02309  -0.05773
     617.00   3.790285     0.1234E+03  -0.00529   0.01322
     619.00   3.791691     0.1300E+03   0.01729  -0.04322
     621.00   3.793092     0.1289E+03   0.01338  -0.03346
     623.00   3.794488     0.1253E+03   0.00121  -0.00303
     625.00   3.795880     0.1222E+03  -0.00970   0.02424
     627.00   3.797267     0.1279E+03   0.01022  -0.02555
     629.00   3.798651     0.1306E+03   0.01925  -0.04811
     631.00   3.800029     0.1286E+03   0.01238  -0.03096
     633.00   3.801404     0.1309E+03   0.02029  -0.05073
     635.00   3.802774     0.1323E+03   0.02486  -0.06215
     637.00   3.804139     0.1323E+03   0.02486  -0.06215
     639.00   3.805501     0.1341E+03   0.03083  -0.07706
     641.00   3.806858     0.1318E+03   0.02313  -0.05783
     643.00   3.808211     0.1331E+03   0.02749  -0.06873
     645.00   3.809560     0.1327E+03   0.02626  -0.06566
     647.00   3.810904     0.1325E+03   0.02567  -0.06418
     649.00   3.812245     0.1305E+03   0.01891  -0.04728
     651.00   3.813581     0.1350E+03   0.03353  -0.08382
     653.00   3.814913     0.1359E+03   0.03651  -0.09128
     655.00   3.816241     0.1326E+03   0.02577  -0.06442
     657.00   3.817565     0.1255E+03   0.00211  -0.00528
     659.00   3.818885     0.1322E+03   0.02467  -0.06166
     661.00   3.820201     0.1334E+03   0.02852  -0.07130
     663.00   3.821513     0.1318E+03   0.02320  -0.05799
     665.00   3.822822     0.1304E+03   0.01846  -0.04615
     667.00   3.824126     0.1272E+03   0.00778  -0.01946
     669.00   3.825426     0.1282E+03   0.01126  -0.02815
     671.00   3.826723     0.1233E+03  -0.00590   0.01476
     673.00   3.828015     0.1255E+03   0.00210  -0.00526
     675.00   3.829304     0.1235E+03  -0.00495   0.01238
     677.00   3.830589     0.1243E+03  -0.00235   0.00588
     679.00   3.831870     0.1234E+03  -0.00535   0.01338
     681.00   3.833147     0.1241E+03  -0.00305   0.00762
     683.00   3.834421     0.1259E+03   0.00330  -0.00826
     685.00   3.835690     0.1235E+03  -0.00493   0.01232
     687.00   3.836957     0.1255E+03   0.00208  -0.00521
     689.00   3.838219     0.1280E+03   0.01055  -0.02638
     691.00   3.839478     0.1290E+03   0.01393  -0.03482
     693.00   3.840733     0.1288E+03   0.01331  -0.03328
     695.00   3.841985     0.1292E+03   0.01463  -0.03656
     697.00   3.843233     0.1317E+03   0.02279  -0.05696
     699.00   3.844477     0.1320E+03   0.02382  -0.05955
     701.00   3.845718     0.1313E+03   0.02164  -0.05409
     703.00   3.846955     0.1323E+03   0.02479  -0.06199
     705.00   3.848189     0.1299E+03   0.01681  -0.04203
     707.00   3.849419     0.1240E+03  -0.00345   0.00863
     709.00   3.850646     0.1186E+03  -0.02252   0.05630
     711.00   3.851870     0.1152E+03  -0.03544   0.08860
     713.00   3.853090     0.1122E+03  -0.04656   0.11639
     715.00   3.854306     0.1119E+03  -0.04788   0.11970
     717.00   3.855519     0.1137E+03  -0.04089   0.10222
     719.00   3.856729     0.1120E+03  -0.04764   0.11910
     721.00   3.857935     0.1150E+03  -0.03596   0.08990
     723.00   3.859138     0.1185E+03  -0.02301   0.05753
     725.00   3.860338     0.1201E+03  -0.01731   0.04328
     727.00   3.861534     0.1218E+03  -0.01117   0.02791
     729.00   3.862728     0.1221E+03  -0.00983   0.02457
     731.00   3.863917     0.1270E+03   0.00722  -0.01806
     733.00   3.865104     0.1272E+03   0.00776  -0.01939
     735.00   3.866287     0.1300E+03   0.01727  -0.04318
     737.00   3.867467     0.1336E+03   0.02898  -0.07245
     739.00   3.868644     0.1314E+03   0.02190  -0.05475
     741.00   3.869818     0.1318E+03   0.02308  -0.05769
     743.00   3.870989     0.1348E+03   0.03299  -0.08247
     745.00   3.872156     0.1347E+03   0.03256  -0.08141
     747.00   3.873321     0.1370E+03   0.04006  -0.10016
     749.00   3.874482     0.1364E+03   0.03816  -0.09540
     751.00   3.875640     0.1371E+03   0.04045  -0.10112
     753.00   3.876795     0.1386E+03   0.04496  -0.11239
     755.00   3.877947     0.1393E+03   0.04712  -0.11781
     757.00   3.879096     0.1386E+03   0.04512  -0.11281
     759.00   3.880242     0.1351E+03   0.03383  -0.08458
     761.00   3.881385     0.1317E+03   0.02304  -0.05761
     763.00   3.882524     0.1282E+03   0.01105  -0.02763
     765.00   3.883662     0.1241E+03  -0.00293   0.00732
     767.00   3.884795     0.1179E+03  -0.02518   0.06295
     769.00   3.885926     0.1203E+03  -0.01632   0.04081
     771.00   3.887054     0.1181E+03  -0.02427   0.06068
     773.00   3.888180     0.1187E+03  -0.02215   0.05538
     775.00   3.889302     0.1178E+03  -0.02563   0.06407
     777.00   3.890421     0.1196E+03  -0.01888   0.04720
     779.00   3.891537     0.1198E+03  -0.01821   0.04553
     781.00   3.892651     0.1204E+03  -0.01600   0.03999
     783.00   3.893762     0.1203E+03  -0.01628   0.04070
     785.00   3.894870     0.1193E+03  -0.02007   0.05016
     787.00   3.895975     0.1214E+03  -0.01235   0.03087
     789.00   3.897077     0.1213E+03  -0.01285   0.03212
     791.00   3.898176     0.1187E+03  -0.02233   0.05582
     793.00   3.899273     0.1195E+03  -0.01939   0.04847
     795.00   3.900367     0.1196E+03  -0.01898   0.04746
     797.00   3.901458     0.1226E+03  -0.00836   0.02090
     799.00   3.902547     0.1227E+03  -0.00790   0.01975
     801.00   3.903632     0.1258E+03   0.00295  -0.00738
     803.00   3.904716     0.1265E+03   0.00536  -0.01341
     805.00   3.905796     0.1261E+03   0.00392  -0.00981
     807.00   3.906873     0.1282E+03   0.01126  -0.02815
     809.00   3.907948     0.1275E+03   0.00894  -0.02236
     811.00   3.909021     0.1284E+03   0.01196  -0.02990
     813.00   3.910090     0.1305E+03   0.01887  -0.04717
     815.00   3.911158     0.1312E+03   0.02125  -0.05312
     817.00   3.912222     0.1313E+03   0.02168  -0.05420
     819.00   3.913284     0.1289E+03   0.01365  -0.03413
     821.00   3.914343     0.1272E+03   0.00781  -0.01952
     823.00   3.915400     0.1274E+03   0.00854  -0.02136
     825.00   3.916454     0.1274E+03   0.00831  -0.02078
     827.00   3.917506     0.1278E+03   0.00992  -0.02481
     829.00   3.918555     0.1267E+03   0.00621  -0.01553
     831.00   3.919601     0.1243E+03  -0.00238   0.00595
     833.00   3.920645     0.1231E+03  -0.00637   0.01592
     835.00   3.921686     0.1233E+03  -0.00588   0.01470
     837.00   3.922725     0.1236E+03  -0.00480   0.01200
     839.00   3.923762     0.1206E+03  -0.01523   0.03808
     841.00   3.924796     0.1234E+03  -0.00530   0.01325
     843.00   3.925828     0.1205E+03  -0.01588   0.03970
     845.00   3.926857     0.1174E+03  -0.02691   0.06727
     847.00   3.927883     0.1165E+03  -0.03025   0.07562
     849.00   3.928908     0.1180E+03  -0.02481   0.06202
     851.00   3.929929     0.1136E+03  -0.04141   0.10352
     853.00   3.930949     0.1176E+03  -0.02648   0.06619
     855.00   3.931966     0.1120E+03  -0.04738   0.11844
     857.00   3.932981     0.1200E+03  -0.01747   0.04367
     859.00   3.933993     0.1191E+03  -0.02080   0.05201
     861.00   3.935003     0.1201E+03  -0.01730   0.04324
     863.00   3.936011     0.1216E+03  -0.01178   0.02944
     865.00   3.937016     0.1221E+03  -0.01012   0.02529
     867.00   3.938019     0.1144E+03  -0.03812   0.09529
     869.00   3.939020     0.1200E+03  -0.01749   0.04372
     871.00   3.940018     0.1227E+03  -0.00802   0.02004
     873.00   3.941014     0.1231E+03  -0.00639   0.01597
     875.00   3.942008     0.1222E+03  -0.00967   0.02417
     877.00   3.943000     0.1233E+03  -0.00592   0.01479
     879.00   3.943989     0.1241E+03  -0.00289   0.00724
     881.00   3.944976     0.1223E+03  -0.00918   0.02295
     883.00   3.945961     0.1231E+03  -0.00638   0.01595
     885.00   3.946943     0.1223E+03  -0.00932   0.02331
     887.00   3.947924     0.1192E+03  -0.02052   0.05130
     889.00   3.948902     0.1201E+03  -0.01731   0.04327
     891.00   3.949878     0.1207E+03  -0.01496   0.03740
     893.00   3.950851     0.1195E+03  -0.01943   0.04857
     895.00   3.951823     0.1195E+03  -0.01942   0.04856
     897.00   3.952792     0.1198E+03  -0.01837   0.04593
     899.00   3.953760     0.1199E+03  -0.01784   0.04460
     901.00   3.954725     0.1173E+03  -0.02750   0.06875
     903.00   3.955688     0.1204E+03  -0.01600   0.03999
     905.00   3.956649     0.1224E+03  -0.00895   0.02237
     907.00   3.957607     0.1220E+03  -0.01025   0.02563
     909.00   3.958564     0.1201E+03  -0.01729   0.04323
     911.00   3.959518     0.1210E+03  -0.01377   0.03443
     913.00   3.960471     0.1219E+03  -0.01055   0.02637
     915.00   3.961421     0.1215E+03  -0.01204   0.03011
     917.00   3.962369     0.1212E+03  -0.01319   0.03297
     919.00   3.963315     0.1216E+03  -0.01179   0.02948
     921.00   3.964260     0.1189E+03  -0.02156   0.05391
     923.00   3.965202     0.1180E+03  -0.02464   0.06161
     925.00   3.966142     0.1173E+03  -0.02749   0.06872
     927.00   3.967080     0.1179E+03  -0.02503   0.06257
     929.00   3.968016     0.1166E+03  -0.03018   0.07545
     931.00   3.968950     0.1169E+03  -0.02900   0.07251
     933.00   3.969882     0.1169E+03  -0.02880   0.07200
     935.00   3.970812     0.1167E+03  -0.02981   0.07452
     937.00   3.971740     0.1151E+03  -0.03555   0.08888
     939.00   3.972666     0.1166E+03  -0.02993   0.07483
     941.00   3.973590     0.1150E+03  -0.03598   0.08996
     943.00   3.974512     0.1164E+03  -0.03078   0.07695
     945.00   3.975432     0.1153E+03  -0.03497   0.08741
     947.00   3.976350     0.1167E+03  -0.02956   0.07390
     949.00   3.977266     0.1167E+03  -0.02948   0.07369
     951.00   3.978180     0.1155E+03  -0.03417   0.08542
     953.00   3.979093     0.1159E+03  -0.03247   0.08117
     955.00   3.980003     0.1144E+03  -0.03827   0.09566
     957.00   3.980912     0.1151E+03  -0.03551   0.08878
     959.00   3.981819     0.1161E+03  -0.03200   0.08000
     961.00   3.982723     0.1150E+03  -0.03602   0.09005
     963.00   3.983626     0.1154E+03  -0.03468   0.08670
     965.00   3.984527     0.1139E+03  -0.04014   0.10036
     967.00   3.985426     0.1140E+03  -0.03961   0.09903
     969.00   3.986324     0.1149E+03  -0.03654   0.09134
     971.00   3.987219     0.1139E+03  -0.04014   0.10034
     973.00   3.988113     0.1132E+03  -0.04270   0.10674
     975.00   3.989005     0.1130E+03  -0.04374   0.10934
     977.00   3.989895     0.1131E+03  -0.04318   0.10794
     979.00   3.990783     0.1121E+03  -0.04728   0.11820
     981.00   3.991669     0.1137E+03  -0.04094   0.10236
     983.00   3.992553     0.1131E+03  -0.04332   0.10831
     985.00   3.993436     0.1133E+03  -0.04232   0.10581
     987.00   3.994317     0.1126E+03  -0.04509   0.11273
     989.00   3.995196     0.1123E+03  -0.04636   0.11590
     991.00   3.996074     0.1120E+03  -0.04734   0.11836
     993.00   3.996949     0.1122E+03  -0.04676   0.11689
     995.00   3.997823     0.1122E+03  -0.04666   0.11664
     997.00   3.998695     0.1121E+03  -0.04694   0.11736
     999.00   3.999566     0.1118E+03  -0.04811   0.12027
    1003.00   4.001301     0.1111E+03  -0.05088   0.12720
    1008.00   4.003461     0.1102E+03  -0.05444   0.13609
    1013.00   4.005610     0.1105E+03  -0.05351   0.13377
    1018.00   4.007748     0.1093E+03  -0.05798   0.14495
    1023.00   4.009875     0.1092E+03  -0.05864   0.14660
    1028.00   4.011993     0.1090E+03  -0.05931   0.14828
    1033.00   4.014100     0.1076E+03  -0.06475   0.16189
    1038.00   4.016197     0.1070E+03  -0.06713   0.16782
    1043.00   4.018284     0.1072E+03  -0.06635   0.16588
    1048.00   4.020361     0.1064E+03  -0.06965   0.17412
    1053.00   4.022429     0.1061E+03  -0.07091   0.17726
    1058.00   4.024486     0.1049E+03  -0.07592   0.18980
    1063.00   4.026533     0.1044E+03  -0.07805   0.19513
    1068.00   4.028571     0.1032E+03  -0.08307   0.20768
    1073.00   4.030600     0.1032E+03  -0.08287   0.20717
    1078.00   4.032619     0.1024E+03  -0.08644   0.21611
    1083.00   4.034628     0.1011E+03  -0.09195   0.22987
    1088.00   4.036629     0.1006E+03  -0.09401   0.23502
    1093.00   4.038620     0.1003E+03  -0.09541   0.23853
    1098.00   4.040603     0.9902E+02  -0.10099   0.25246
    1103.00   4.042576     0.9870E+02  -0.10239   0.25598
    1108.00   4.044539     0.9789E+02  -0.10596   0.26490
    1113.00   4.046495     0.9749E+02  -0.10776   0.26940
    1118.00   4.048442     0.9682E+02  -0.11073   0.27683
    1123.00   4.050380     0.9675E+02  -0.11106   0.27765
    1128.00   4.052309     0.9590E+02  -0.11488   0.28721
    1133.00   4.054230     0.9576E+02  -0.11554   0.28885
    1138.00   4.056142     0.9513E+02  -0.11838   0.29595
    1143.00   4.058046     0.9437E+02  -0.12187   0.30467
    1148.00   4.059942     0.9497E+02  -0.11912   0.29781
    1153.00   4.061830     0.9477E+02  -0.12005   0.30013
    1158.00   4.063708     0.9390E+02  -0.12402   0.31005
    1163.00   4.065579     0.9285E+02  -0.12891   0.32227
    1168.00   4.067443     0.9279E+02  -0.12919   0.32296
    1173.00   4.069298     0.9306E+02  -0.12793   0.31983
    1178.00   4.071145     0.9177E+02  -0.13402   0.33504
    1183.00   4.072985     0.9117E+02  -0.13683   0.34208
    1188.00   4.074817     0.9023E+02  -0.14135   0.35338
    1193.00   4.076640     0.9119E+02  -0.13678   0.34195
    1198.00   4.078457     0.8894E+02  -0.14760   0.36900
    1203.00   4.080266     0.8998E+02  -0.14256   0.35641
    1208.00   4.082067     0.8926E+02  -0.14604   0.36510
    1213.00   4.083861     0.8926E+02  -0.14607   0.36517
    1218.00   4.085648     0.8924E+02  -0.14617   0.36542
    1223.00   4.087426     0.8873E+02  -0.14865   0.37163
    1228.00   4.089198     0.8816E+02  -0.15141   0.37853
    1233.00   4.090963     0.8776E+02  -0.15341   0.38354
    1238.00   4.092721     0.8743E+02  -0.15504   0.38760
    1243.00   4.094471     0.8668E+02  -0.15877   0.39694
    1248.00   4.096214     0.8657E+02  -0.15931   0.39829
    1253.00   4.097951     0.8592E+02  -0.16263   0.40656
    1258.00   4.099681     0.8564E+02  -0.16402   0.41005
    1263.00   4.101403     0.8525E+02  -0.16599   0.41497
    1268.00   4.103119     0.8467E+02  -0.16897   0.42242
    1273.00   4.104828     0.8458E+02  -0.16944   0.42359
    1278.00   4.106531     0.8448E+02  -0.16996   0.42490
    1283.00   4.108227     0.8246E+02  -0.18044   0.45111
    1288.00   4.109916     0.8325E+02  -0.17632   0.44080
    1293.00   4.111598     0.8258E+02  -0.17985   0.44963
    1298.00   4.113275     0.8294E+02  -0.17792   0.44479
    1303.00   4.114944     0.8220E+02  -0.18182   0.45455
    1308.00   4.116608     0.8219E+02  -0.18190   0.45475
    1313.00   4.118265     0.8098E+02  -0.18835   0.47087
    1318.00   4.119915     0.8068E+02  -0.18994   0.47485
    1323.00   4.121560     0.8067E+02  -0.19000   0.47501
    1328.00   4.123198     0.7964E+02  -0.19559   0.48898
    1333.00   4.124830     0.7969E+02  -0.19529   0.48824
    1338.00   4.126456     0.7913E+02  -0.19838   0.49596
    1343.00   4.128076     0.7914E+02  -0.19831   0.49576
    1348.00   4.129690     0.7863E+02  -0.20112   0.50281
    1353.00   4.131298     0.7825E+02  -0.20324   0.50811
    1358.00   4.132900     0.7731E+02  -0.20845   0.52113
    1363.00   4.134496     0.7707E+02  -0.20981   0.52453
    1368.00   4.136086     0.7738E+02  -0.20808   0.52020
    1373.00   4.137671     0.7759E+02  -0.20691   0.51729
    1378.00   4.139249     0.7743E+02  -0.20777   0.51942
    1383.00   4.140822     0.7737E+02  -0.20811   0.52028
    1388.00   4.142389     0.7669E+02  -0.21195   0.52987
    1393.00   4.143951     0.7287E+02  -0.23415   0.58538
    1398.00   4.145507     0.7311E+02  -0.23275   0.58187
    1403.00   4.147058     0.7252E+02  -0.23624   0.59060
    1408.00   4.148602     0.7290E+02  -0.23398   0.58494
    1413.00   4.150142     0.7236E+02  -0.23722   0.59306
    1418.00   4.151676     0.7271E+02  -0.23514   0.58785
    1423.00   4.153205     0.7212E+02  -0.23864   0.59661
    1428.00   4.154728     0.7149E+02  -0.24248   0.60620
    1433.00   4.156246     0.7250E+02  -0.23634   0.59086
    1438.00   4.157759     0.7276E+02  -0.23480   0.58701
    1443.00   4.159266     0.7165E+02  -0.24150   0.60375
    1448.00   4.160769     0.7261E+02  -0.23570   0.58926
    1453.00   4.162266     0.7205E+02  -0.23909   0.59774
    1457.00   4.163460     0.7231E+02  -0.23751   0.59378
    1462.00   4.164948     0.7018E+02  -0.25046   0.62616
    1468.00   4.166726     0.7041E+02  -0.24909   0.62271
    1473.00   4.168202     0.6995E+02  -0.25193   0.62981
    1478.00   4.169674     0.7037E+02  -0.24929   0.62324
    1483.00   4.171141     0.7061E+02  -0.24784   0.61961
    1488.00   4.172603     0.7016E+02  -0.25059   0.62647
    1493.00   4.174060     0.7138E+02  -0.24312   0.60780
    1498.00   4.175512     0.7104E+02  -0.24520   0.61300
    1503.00   4.176959     0.7034E+02  -0.24953   0.62382
    1508.00   4.178401     0.7050E+02  -0.24851   0.62128
    1513.00   4.179839     0.7152E+02  -0.24230   0.60574
    1518.00   4.181272     0.7167E+02  -0.24139   0.60348
    1523.00   4.182700     0.7162E+02  -0.24170   0.60425
    1528.00   4.184123     0.7196E+02  -0.23960   0.59899
    1533.00   4.185542     0.7178E+02  -0.24073   0.60182
    1538.00   4.186956     0.7078E+02  -0.24681   0.61703
    1543.00   4.188366     0.7125E+02  -0.24389   0.60973
    1548.00   4.189771     0.7140E+02  -0.24298   0.60745
    1553.00   4.191172     0.7105E+02  -0.24513   0.61283
    1558.00   4.192567     0.6943E+02  -0.25517   0.63792
    1563.00   4.193959     0.7020E+02  -0.25035   0.62587
    1568.00   4.195346     0.7002E+02  -0.25151   0.62878
    1573.00   4.196729     0.7087E+02  -0.24627   0.61567
    1578.00   4.198107     0.6628E+02  -0.27533   0.68833
    1583.00   4.199481     0.6812E+02  -0.26340   0.65851
    1588.00   4.200850     0.6807E+02  -0.26374   0.65934
    1593.00   4.202216     0.6965E+02  -0.25381   0.63452
    1598.00   4.203577     0.7043E+02  -0.24894   0.62236
    1605.00   4.205475     0.6819E+02  -0.26300   0.65751
    1615.00   4.208173     0.6927E+02  -0.25613   0.64033
    1625.00   4.210854     0.6724E+02  -0.26905   0.67263
    1635.00   4.213518     0.6868E+02  -0.25985   0.64962
    1645.00   4.216166     0.6624E+02  -0.27556   0.68891
    1655.00   4.218798     0.6703E+02  -0.27044   0.67610
    1665.00   4.221415     0.6505E+02  -0.28345   0.70862
    1675.00   4.224015     0.6493E+02  -0.28427   0.71066
    1685.00   4.226600     0.6424E+02  -0.28888   0.72220
    1695.00   4.229170     0.6331E+02  -0.29526   0.73816
    1705.00   4.231725     0.6204E+02  -0.30402   0.76005
    1715.00   4.234264     0.6087E+02  -0.31233   0.78083
    1725.00   4.236789     0.5966E+02  -0.32104   0.80261
    1735.00   4.239300     0.5794E+02  -0.33371   0.83428
    1745.00   4.241796     0.5721E+02  -0.33921   0.84802
    1755.00   4.244277     0.5633E+02  -0.34597   0.86492
    1765.00   4.246745     0.5515E+02  -0.35517   0.88791
    1775.00   4.249198     0.5394E+02  -0.36477   0.91192
    1785.00   4.251638     0.5316E+02  -0.37108   0.92771
    1795.00   4.254065     0.5204E+02  -0.38033   0.95083
    1805.00   4.256477     0.5095E+02  -0.38954   0.97384
    1815.00   4.258877     0.4999E+02  -0.39780   0.99450
    1825.00   4.261263     0.4928E+02  -0.40402   1.01005
    1835.00   4.263636     0.4854E+02  -0.41065   1.02661
    1845.00   4.265996     0.4759E+02  -0.41915   1.04788
    1855.00   4.268344     0.4711E+02  -0.42360   1.05900
    1865.00   4.270679     0.4609E+02  -0.43308   1.08269
    1875.00   4.273001     0.4505E+02  -0.44298   1.10745
    1885.00   4.275311     0.4465E+02  -0.44687   1.11718
    1895.00   4.277609     0.4322E+02  -0.46101   1.15252
    1905.00   4.279895     0.4309E+02  -0.46234   1.15584
    1915.00   4.282169     0.4217E+02  -0.47167   1.17918
    1925.00   4.284431     0.4142E+02  -0.47949   1.19872
    1935.00   4.286681     0.4032E+02  -0.49122   1.22806
    1945.00   4.288919     0.3932E+02  -0.50213   1.25532
    1955.00   4.291147     0.3900E+02  -0.50569   1.26423
    1965.00   4.293363     0.3828E+02  -0.51372   1.28431
    1975.00   4.295567     0.3733E+02  -0.52461   1.31153
    1985.00   4.297760     0.3680E+02  -0.53081   1.32702
    1995.00   4.299943     0.3629E+02  -0.53686   1.34215
    2005.00   4.302114     0.3596E+02  -0.54083   1.35207
    2015.00   4.304275     0.3544E+02  -0.54723   1.36809
    2025.00   4.306425     0.3465E+02  -0.55699   1.39248
    2035.00   4.308564     0.3413E+02  -0.56351   1.40877
    2045.00   4.310693     0.3387E+02  -0.56691   1.41727
    2055.00   4.312812     0.3331E+02  -0.57414   1.43534
    2065.00   4.314920     0.3273E+02  -0.58171   1.45427
    2075.00   4.317018     0.3231E+02  -0.58730   1.46825
    2085.00   4.319106     0.3183E+02  -0.59390   1.48475
    2095.00   4.321184     0.3125E+02  -0.60185   1.50463
    2105.00   4.323252     0.3097E+02  -0.60571   1.51427
    2115.00   4.325311     0.3045E+02  -0.61311   1.53277
    2125.00   4.327359     0.2999E+02  -0.61971   1.54927
    2135.00   4.329398     0.2965E+02  -0.62472   1.56180
    2145.00   4.331428     0.2919E+02  -0.63150   1.57875
    2155.00   4.333447     0.2874E+02  -0.63820   1.59551
    2165.00   4.335458     0.2817E+02  -0.64697   1.61742
    2175.00   4.337460     0.2780E+02  -0.65269   1.63171
    2185.00   4.339452     0.2743E+02  -0.65843   1.64609
    2195.00   4.341434     0.2707E+02  -0.66417   1.66043
    2205.00   4.343409     0.2646E+02  -0.67417   1.68542
    2215.00   4.345374     0.2630E+02  -0.67679   1.69199
    2225.00   4.347330     0.2572E+02  -0.68642   1.71606
    2235.00   4.349277     0.2538E+02  -0.69219   1.73049
    2245.00   4.351216     0.2501E+02  -0.69861   1.74652
    2255.00   4.353147     0.2467E+02  -0.70448   1.76119
    2265.00   4.355068     0.2419E+02  -0.71305   1.78263
    2275.00   4.356981     0.2396E+02  -0.71724   1.79310
    2285.00   4.358886     0.2349E+02  -0.72580   1.81449
    2295.00   4.360783     0.1934E+02  -0.81021   2.02553
    2305.00   4.362671     0.2113E+02  -0.77190   1.92975
    2315.00   4.364551     0.2103E+02  -0.77381   1.93451
    2325.00   4.366423     0.1797E+02  -0.84209   2.10522
    2335.00   4.368287     0.1944E+02  -0.80793   2.01982
    2345.00   4.370143     0.1819E+02  -0.83676   2.09189
    2355.00   4.371991     0.1674E+02  -0.87296   2.18239
    2365.00   4.373831     0.1803E+02  -0.84064   2.10160
    2375.00   4.375664     0.1706E+02  -0.86478   2.16194
    2385.00   4.377488     0.1581E+02  -0.89773   2.24434
    2395.00   4.379306     0.1681E+02  -0.87105   2.17762
    2405.00   4.381115     0.1625E+02  -0.88572   2.21430
    2415.00   4.382917     0.1501E+02  -0.92038   2.30095
    2425.00   4.384712     0.1581E+02  -0.89782   2.24456
    2435.00   4.386499     0.1522E+02  -0.91418   2.28546
    2445.00   4.388279     0.1512E+02  -0.91705   2.29261
    2455.00   4.390052     0.1467E+02  -0.93040   2.32600
    2465.00   4.391817     0.1470E+02  -0.92953   2.32382
    2475.00   4.393575     0.1431E+02  -0.94118   2.35295
    2485.00   4.395327     0.1280E+02  -0.98952   2.47380
    2495.00   4.397071     0.1243E+02  -1.00211   2.50527
    2505.00   4.398808     0.1259E+02  -0.99655   2.49138
    2515.00   4.400538     0.1204E+02  -1.01610   2.54026
    2525.00   4.402262     0.1231E+02  -1.00662   2.51654
    2535.00   4.403978     0.1233E+02  -1.00571   2.51427
    2545.00   4.405688     0.1220E+02  -1.01047   2.52618
    2555.00   4.407391     0.1217E+02  -1.01133   2.52832
    2565.00   4.409087     0.1225E+02  -1.00864   2.52161
    2575.00   4.410777     0.1232E+02  -1.00598   2.51494
    2585.00   4.412460     0.1203E+02  -1.01649   2.54121
    2595.00   4.414137     0.1207E+02  -1.01502   2.53755
    2605.00   4.415808     0.1206E+02  -1.01553   2.53883
    2615.00   4.417472     0.1187E+02  -1.02214   2.55536
    2625.00   4.419129     0.1170E+02  -1.02869   2.57172
    2635.00   4.420781     0.1169E+02  -1.02879   2.57197
    2645.00   4.422426     0.1159E+02  -1.03254   2.58136
    2655.00   4.424065     0.1145E+02  -1.03798   2.59496
    2665.00   4.425697     0.1127E+02  -1.04471   2.61177
    2675.00   4.427324     0.1135E+02  -1.04186   2.60466
    2685.00   4.428945     0.1123E+02  -1.04651   2.61626
    2695.00   4.430559     0.1104E+02  -1.05379   2.63446
    2705.00   4.432167     0.1101E+02  -1.05501   2.63753
    2715.00   4.433770     0.1090E+02  -1.05914   2.64785
    2725.00   4.435367     0.1083E+02  -1.06213   2.65531
    2735.00   4.436957     0.1066E+02  -1.06892   2.67229
    2745.00   4.438542     0.1062E+02  -1.07061   2.67653
    2755.00   4.440122     0.1054E+02  -1.07391   2.68478
    2765.00   4.441695     0.1041E+02  -1.07928   2.69820
    2775.00   4.443263     0.1028E+02  -1.08464   2.71160
    2785.00   4.444825     0.1023E+02  -1.08704   2.71759
    2795.00   4.446382     0.1016E+02  -1.08962   2.72406
    2805.00   4.447933     0.1005E+02  -1.09433   2.73583
    2815.00   4.449478     0.9929E+01  -1.09981   2.74953
    2825.00   4.451018     0.9848E+01  -1.10337   2.75842
    2835.00   4.452553     0.9776E+01  -1.10655   2.76637
    2845.00   4.454082     0.9662E+01  -1.11163   2.77908
    2855.00   4.455606     0.9563E+01  -1.11611   2.79027
    2865.00   4.457125     0.9470E+01  -1.12037   2.80091
    2875.00   4.458638     0.9370E+01  -1.12494   2.81235
    2885.00   4.460146     0.9287E+01  -1.12883   2.82208
    2895.00   4.461648     0.9196E+01  -1.13312   2.83279
    2905.00   4.463146     0.9098E+01  -1.13776   2.84441
    2915.00   4.464639     0.9014E+01  -1.14177   2.85443
    2925.00   4.466126     0.8882E+01  -1.14822   2.87054
    2935.00   4.467608     0.8836E+01  -1.15046   2.87616
    2945.00   4.469085     0.8730E+01  -1.15569   2.88922
    2955.00   4.470557     0.8647E+01  -1.15982   2.89954
    2965.00   4.472025     0.8573E+01  -1.16358   2.90895
    2975.00   4.473487     0.8487E+01  -1.16796   2.91991
    2985.00   4.474944     0.8392E+01  -1.17286   2.93214
    2995.00   4.476397     0.8302E+01  -1.17751   2.94377
    3005.00   4.477844     0.8223E+01  -1.18170   2.95424
    3015.00   4.479287     0.8159E+01  -1.18505   2.96261
    3025.00   4.480725     0.8072E+01  -1.18970   2.97426
    3035.00   4.482159     0.7981E+01  -1.19463   2.98657
    3045.00   4.483587     0.7933E+01  -1.19724   2.99311
    3055.00   4.485011     0.7855E+01  -1.20155   3.00388
    3065.00   4.486430     0.7780E+01  -1.20572   3.01430
    3075.00   4.487845     0.7720E+01  -1.20909   3.02274
    3085.00   4.489255     0.7632E+01  -1.21408   3.03519
    3095.00   4.490661     0.7569E+01  -1.21765   3.04413
    3105.00   4.492062     0.7511E+01  -1.22098   3.05245
    3115.00   4.493458     0.7409E+01  -1.22695   3.06737
    3125.00   4.494850     0.7363E+01  -1.22964   3.07409
    3135.00   4.496238     0.7295E+01  -1.23368   3.08419
    3145.00   4.497621     0.7224E+01  -1.23793   3.09483
    3155.00   4.499000     0.7145E+01  -1.24268   3.10670
    3165.00   4.500374     0.7075E+01  -1.24698   3.11746
    3175.00   4.501744     0.7017E+01  -1.25055   3.12636
    3185.00   4.503109     0.6949E+01  -1.25481   3.13702
    3195.00   4.504471     0.6887E+01  -1.25870   3.14674
    3210.00   4.506505     0.6781E+01  -1.26543   3.16358
    3230.00   4.509202     0.6646E+01  -1.27417   3.18543
    3250.00   4.511883     0.6515E+01  -1.28280   3.20700
    3270.00   4.514548     0.6382E+01  -1.29174   3.22936
    3290.00   4.517196     0.6245E+01  -1.30116   3.25291
    3310.00   4.519828     0.6126E+01  -1.30949   3.27373
    3330.00   4.522444     0.5997E+01  -1.31875   3.29687
    3350.00   4.525045     0.5886E+01  -1.32691   3.31727
    3370.00   4.527630     0.5763E+01  -1.33608   3.34021
    3390.00   4.530200     0.5639E+01  -1.34551   3.36377
    3410.00   4.532754     0.5519E+01  -1.35484   3.38709
    3430.00   4.535294     0.5418E+01  -1.36288   3.40720
    3450.00   4.537819     0.5310E+01  -1.37162   3.42906
    3470.00   4.540329     0.5199E+01  -1.38077   3.45192
    3490.00   4.542826     0.5094E+01  -1.38962   3.47405
    3510.00   4.545307     0.4994E+01  -1.39828   3.49569
    3530.00   4.547775     0.4886E+01  -1.40774   3.51934
    3550.00   4.550228     0.4792E+01  -1.41615   3.54038
    3570.00   4.552669     0.4694E+01  -1.42514   3.56286
    3590.00   4.555095     0.4602E+01  -1.43379   3.58449
    3610.00   4.557508     0.4516E+01  -1.44199   3.60499
    3630.00   4.559907     0.4425E+01  -1.45081   3.62703
    3650.00   4.562293     0.4330E+01  -1.46019   3.65048
    3670.00   4.564666     0.4243E+01  -1.46908   3.67269
    3690.00   4.567026     0.4150E+01  -1.47867   3.69668
    3710.00   4.569374     0.4065E+01  -1.48762   3.71905
    3730.00   4.571709     0.3996E+01  -1.49509   3.73773
    3750.00   4.574031     0.3904E+01  -1.50516   3.76289
    3770.00   4.576342     0.3842E+01  -1.51209   3.78024
    3790.00   4.578639     0.3766E+01  -1.52081   3.80202
    3810.00   4.580925     0.3696E+01  -1.52894   3.82235
    3830.00   4.583199     0.3629E+01  -1.53688   3.84220
    3850.00   4.585461     0.3561E+01  -1.54511   3.86277
    3870.00   4.587711     0.3485E+01  -1.55451   3.88628
    3890.00   4.589950     0.3423E+01  -1.56235   3.90587
    3910.00   4.592176     0.3360E+01  -1.57031   3.92577
    3930.00   4.594393     0.3297E+01  -1.57855   3.94636
    3950.00   4.596597     0.3228E+01  -1.58783   3.96958
    3970.00   4.598790     0.3170E+01  -1.59561   3.98903
    3990.00   4.600973     0.3101E+01  -1.60524   4.01310
    4010.00   4.603145     0.3050E+01  -1.61238   4.03094
    4030.00   4.605305     0.2999E+01  -1.61979   4.04947
    4050.00   4.607455     0.2937E+01  -1.62874   4.07185
    4070.00   4.609594     0.2888E+01  -1.63618   4.09045
    4090.00   4.611723     0.2836E+01  -1.64406   4.11014
    4110.00   4.613842     0.2787E+01  -1.65161   4.12903
    4130.00   4.615950     0.2740E+01  -1.65893   4.14733
    4150.00   4.618048     0.2690E+01  -1.66690   4.16724
    4170.00   4.620136     0.2644E+01  -1.67449   4.18623
    4190.00   4.622214     0.2596E+01  -1.68245   4.20612
    4210.00   4.624282     0.2548E+01  -1.69050   4.22624
    4230.00   4.626340     0.2513E+01  -1.69643   4.24106
    4250.00   4.628389     0.2467E+01  -1.70461   4.26153
    4270.00   4.630428     0.2428E+01  -1.71141   4.27852
    4290.00   4.632457     0.2321E+01  -1.73106   4.32766
    4310.00   4.634478     0.2213E+01  -1.75178   4.37945
    4330.00   4.636488     0.2204E+01  -1.75357   4.38392
    4350.00   4.638489     0.2111E+01  -1.77214   4.43036
    4370.00   4.640481     0.2055E+01  -1.78380   4.45951
    4390.00   4.642465     0.2014E+01  -1.79272   4.48181
    4410.00   4.644439     0.1938E+01  -1.80944   4.52361
    4430.00   4.646404     0.1908E+01  -1.81606   4.54016
    4450.00   4.648360     0.1874E+01  -1.82394   4.55985
    4470.00   4.650308     0.1811E+01  -1.83881   4.59704
    4490.00   4.652246     0.1806E+01  -1.84002   4.60004
    4510.00   4.654177     0.1761E+01  -1.85084   4.62711
    4530.00   4.656098     0.1717E+01  -1.86188   4.65470
    4550.00   4.658011     0.1707E+01  -1.86452   4.66130
    4570.00   4.659916     0.1686E+01  -1.86984   4.67460
    4590.00   4.661813     0.1635E+01  -1.88323   4.70807
    4610.00   4.663701     0.1634E+01  -1.88337   4.70842
    4630.00   4.665581     0.1604E+01  -1.89163   4.72907
    4650.00   4.667453     0.1587E+01  -1.89616   4.74039
    4670.00   4.669317     0.1575E+01  -1.89943   4.74857
    4690.00   4.671173     0.1546E+01  -1.90756   4.76891
    4710.00   4.673021     0.1520E+01  -1.91488   4.78720
    4730.00   4.674861     0.1519E+01  -1.91526   4.78816
    4750.00   4.676694     0.1486E+01  -1.92481   4.81202
    4770.00   4.678518     0.1466E+01  -1.93056   4.82641
    4790.00   4.680336     0.1451E+01  -1.93493   4.83731
    4810.00   4.682145     0.1417E+01  -1.94529   4.86322
    4830.00   4.683947     0.1418E+01  -1.94502   4.86254
    4850.00   4.685741     0.1393E+01  -1.95282   4.88204
    4870.00   4.687529     0.1366E+01  -1.96117   4.90292
    4890.00   4.689309     0.1348E+01  -1.96705   4.91762
    4910.00   4.691082     0.1332E+01  -1.97236   4.93090
    4930.00   4.692847     0.1310E+01  -1.97929   4.94822
    4950.00   4.694605     0.1289E+01  -1.98643   4.96608
    4970.00   4.696356     0.1278E+01  -1.99005   4.97512
    4990.00   4.698101     0.1260E+01  -1.99619   4.99047
    5010.00   4.699838     0.1244E+01  -2.00177   5.00442
    5030.00   4.701568     0.1228E+01  -2.00747   5.01868
    5050.00   4.703291     0.1203E+01  -2.01645   5.04112
    5070.00   4.705008     0.1193E+01  -2.02023   5.05057
    5090.00   4.706717     0.1178E+01  -2.02556   5.06390
    5110.00   4.708421     0.1157E+01  -2.03330   5.08324
    5130.00   4.710117     0.1149E+01  -2.03650   5.09124
    5150.00   4.711807     0.1129E+01  -2.04412   5.11029
    5170.00   4.713490     0.1123E+01  -2.04644   5.11611
    5190.00   4.715167     0.1102E+01  -2.05437   5.13593
    5210.00   4.716838     0.1090E+01  -2.05909   5.14771
    5230.00   4.718502     0.1072E+01  -2.06635   5.16588
    5250.00   4.720160     0.1063E+01  -2.07008   5.17521
    5270.00   4.721810     0.1056E+01  -2.07293   5.18232
    5290.00   4.723455     0.1033E+01  -2.08241   5.20602
    5310.00   4.725095     0.1021E+01  -2.08779   5.21949
    5330.00   4.726727     0.1011E+01  -2.09200   5.22999
    5350.00   4.728354     0.9989E+00  -2.09718   5.24296
    5370.00   4.729974     0.9876E+00  -2.10213   5.25532
    5390.00   4.731589     0.9762E+00  -2.10718   5.26795
    5410.00   4.733197     0.9643E+00  -2.11247   5.28118
    5430.00   4.734800     0.9474E+00  -2.12017   5.30043
    5450.00   4.736397     0.9418E+00  -2.12277   5.30691
    5470.00   4.737988     0.9272E+00  -2.12955   5.32388
    5490.00   4.739573     0.9168E+00  -2.13442   5.33604
    5510.00   4.741152     0.9050E+00  -2.14008   5.35019
    5530.00   4.742725     0.9040E+00  -2.14055   5.35138
    5550.00   4.744293     0.8823E+00  -2.15109   5.37772
    5570.00   4.745855     0.8789E+00  -2.15274   5.38186
    5590.00   4.747412     0.8647E+00  -2.15983   5.39957
    5610.00   4.748963     0.8571E+00  -2.16367   5.40917
    5630.00   4.750508     0.8426E+00  -2.17106   5.42765
    5650.00   4.752048     0.8372E+00  -2.17386   5.43464
    5670.00   4.753583     0.8270E+00  -2.17919   5.44798
    5690.00   4.755112     0.8131E+00  -2.18653   5.46634
    5710.00   4.756636     0.8085E+00  -2.18902   5.47255
    5730.00   4.758155     0.7983E+00  -2.19456   5.48639
    5750.00   4.759668     0.7888E+00  -2.19975   5.49936
    5770.00   4.761176     0.7784E+00  -2.20548   5.51370
    5790.00   4.762679     0.7721E+00  -2.20901   5.52253
    5810.00   4.764176     0.7606E+00  -2.21556   5.53889
    5830.00   4.765669     0.7523E+00  -2.22032   5.55081
    5850.00   4.767156     0.7439E+00  -2.22520   5.56301
    5870.00   4.768638     0.7329E+00  -2.23168   5.57921
    5890.00   4.770115     0.7249E+00  -2.23641   5.59103
    5910.00   4.771587     0.7171E+00  -2.24113   5.60282
    5930.00   4.773055     0.7092E+00  -2.24591   5.61478
    5950.00   4.774517     0.6997E+00  -2.25182   5.62955
    5970.00   4.775974     0.6932E+00  -2.25583   5.63956
    5990.00   4.777427     0.6851E+00  -2.26098   5.65245
    6010.00   4.778874     0.6771E+00  -2.26607   5.66517
    6030.00   4.780317     0.6691E+00  -2.27123   5.67808
    6050.00   4.781755     0.6598E+00  -2.27731   5.69329
    6070.00   4.783189     0.6523E+00  -2.28223   5.70557
    6090.00   4.784617     0.6447E+00  -2.28733   5.71831
    6110.00   4.786041     0.6365E+00  -2.29291   5.73227
    6130.00   4.787460     0.6301E+00  -2.29727   5.74317
    6150.00   4.788875     0.6233E+00  -2.30202   5.75504
    6170.00   4.790285     0.6169E+00  -2.30651   5.76628
    6190.00   4.791691     0.6096E+00  -2.31166   5.77915
    6210.00   4.793092     0.6030E+00  -2.31635   5.79089
    6230.00   4.794488     0.5952E+00  -2.32206   5.80514
    6250.00   4.795880     0.5875E+00  -2.32768   5.81920
    6270.00   4.797267     0.5808E+00  -2.33265   5.83164
    6290.00   4.798651     0.5746E+00  -2.33732   5.84331
    6310.00   4.800029     0.5678E+00  -2.34253   5.85634
    6330.00   4.801404     0.5625E+00  -2.34661   5.86652
    6350.00   4.802773     0.5554E+00  -2.35212   5.88031
    6370.00   4.804139     0.5502E+00  -2.35622   5.89055
    6390.00   4.805501     0.5428E+00  -2.36208   5.90519
    6420.00   4.807535     0.5340E+00  -2.36916   5.92290
    6460.00   4.810232     0.5217E+00  -2.37930   5.94826
    6500.00   4.812913     0.5101E+00  -2.38901   5.97253
    6540.00   4.815578     0.4987E+00  -2.39885   5.99712
    6580.00   4.818226     0.4880E+00  -2.40828   6.02070
    6620.00   4.820858     0.4770E+00  -2.41823   6.04556
    6660.00   4.823474     0.4665E+00  -2.42783   6.06958
    6700.00   4.826075     0.4564E+00  -2.43736   6.09339
    6740.00   4.828660     0.4462E+00  -2.44717   6.11792
    6780.00   4.831230     0.4366E+00  -2.45665   6.14163
    6820.00   4.833784     0.4270E+00  -2.46623   6.16557
    6860.00   4.836324     0.4180E+00  -2.47552   6.18881
    6900.00   4.838849     0.4089E+00  -2.48509   6.21273
    6940.00   4.841359     0.4002E+00  -2.49446   6.23614
    6980.00   4.843855     0.3917E+00  -2.50376   6.25939
    7020.00   4.846337     0.3832E+00  -2.51324   6.28309
    7060.00   4.848804     0.3753E+00  -2.52233   6.30582
    7100.00   4.851258     0.3674E+00  -2.53159   6.32897
    7140.00   4.853698     0.3597E+00  -2.54071   6.35178
    7180.00   4.856124     0.3522E+00  -2.54991   6.37477
    7220.00   4.858537     0.3449E+00  -2.55897   6.39742
    7260.00   4.860937     0.3378E+00  -2.56808   6.42019
    7300.00   4.863323     0.3309E+00  -2.57704   6.44260
    7340.00   4.865696     0.3240E+00  -2.58610   6.46526
    7380.00   4.868056     0.3175E+00  -2.59494   6.48735
    7420.00   4.870404     0.3109E+00  -2.60406   6.51014
    7460.00   4.872739     0.3046E+00  -2.61298   6.53245
    7500.00   4.875061     0.2986E+00  -2.62167   6.55417
    7540.00   4.877371     0.2926E+00  -2.63049   6.57623
    7580.00   4.879669     0.2869E+00  -2.63895   6.59736
    7620.00   4.881955     0.2812E+00  -2.64762   6.61906
    7660.00   4.884229     0.2757E+00  -2.65625   6.64062
    7700.00   4.886491     0.2703E+00  -2.66491   6.66227
    7740.00   4.888741     0.2650E+00  -2.67340   6.68349
    7780.00   4.890980     0.2599E+00  -2.68189   6.70471
    7820.00   4.893207     0.2549E+00  -2.69037   6.72593
    7860.00   4.895422     0.2500E+00  -2.69879   6.74697
    7900.00   4.897627     0.2452E+00  -2.70718   6.76795
    7940.00   4.899820     0.2405E+00  -2.71554   6.78884
    7980.00   4.902003     0.2360E+00  -2.72382   6.80955
    8020.00   4.904174     0.2315E+00  -2.73222   6.83055
    8060.00   4.906335     0.2271E+00  -2.74044   6.85111
    8100.00   4.908485     0.2229E+00  -2.74855   6.87138
    8140.00   4.910625     0.2187E+00  -2.75678   6.89196
    8180.00   4.912753     0.2147E+00  -2.76481   6.91203
    8220.00   4.914872     0.2108E+00  -2.77287   6.93218
    8260.00   4.916980     0.2069E+00  -2.78094   6.95236
    8300.00   4.919078     0.2031E+00  -2.78894   6.97234
    8340.00   4.921166     0.1994E+00  -2.79702   6.99254
    8380.00   4.923244     0.1958E+00  -2.80496   7.01241
    8420.00   4.925312     0.1923E+00  -2.81274   7.03186
    8460.00   4.927370     0.1888E+00  -2.82065   7.05162
    8500.00   4.929419     0.1855E+00  -2.82847   7.07116
    8540.00   4.931458     0.1822E+00  -2.83623   7.09058
    8580.00   4.933487     0.1789E+00  -2.84398   7.10994
    8620.00   4.935507     0.1758E+00  -2.85169   7.12922
    8660.00   4.937518     0.1727E+00  -2.85935   7.14836
    8700.00   4.939519     0.1697E+00  -2.86701   7.16752
    8740.00   4.941511     0.1668E+00  -2.87463   7.18658
    8780.00   4.943495     0.1639E+00  -2.88224   7.20559
    8820.00   4.945469     0.1610E+00  -2.88986   7.22465
    8860.00   4.947433     0.1582E+00  -2.89737   7.24341
    8900.00   4.949390     0.1555E+00  -2.90489   7.26224
    8940.00   4.951338     0.1529E+00  -2.91228   7.28069
    8980.00   4.953277     0.1503E+00  -2.91984   7.29960
    9020.00   4.955207     0.1478E+00  -2.92710   7.31775
    9060.00   4.957129     0.1453E+00  -2.93443   7.33607
    9100.00   4.959042     0.1428E+00  -2.94200   7.35499
    9140.00   4.960946     0.1405E+00  -2.94915   7.37288
    9180.00   4.962843     0.1381E+00  -2.95641   7.39102
    9220.00   4.964731     0.1359E+00  -2.96356   7.40891
    9260.00   4.966611     0.1336E+00  -2.97079   7.42698
    9300.00   4.968483     0.1314E+00  -2.97796   7.44491
    9340.00   4.970347     0.1293E+00  -2.98514   7.46285
    9380.00   4.972203     0.1272E+00  -2.99224   7.48059
    9420.00   4.974051     0.1251E+00  -2.99934   7.49834
    9460.00   4.975891     0.1231E+00  -3.00643   7.51607
    9500.00   4.977724     0.1211E+00  -3.01346   7.53365
    9540.00   4.979548     0.1192E+00  -3.02047   7.55117
    9580.00   4.981365     0.1173E+00  -3.02743   7.56858
    9620.00   4.983175     0.1154E+00  -3.03440   7.58600
    9660.00   4.984977     0.1136E+00  -3.04130   7.60325
    9700.00   4.986772     0.1118E+00  -3.04819   7.62047
    9740.00   4.988559     0.1100E+00  -3.05527   7.63819
    9780.00   4.990339     0.1083E+00  -3.06198   7.65495
    9820.00   4.992111     0.1067E+00  -3.06874   7.67186
    9860.00   4.993877     0.1050E+00  -3.07552   7.68881
    9900.00   4.995635     0.1034E+00  -3.08227   7.70568
    9940.00   4.997386     0.1018E+00  -3.08904   7.72261
    9980.00   4.999130     0.1002E+00  -3.09575   7.73937
   10020.00   5.000868     0.9869E-01  -3.10243   7.75607
   20000.00   5.301030     0.6686E-02  -4.27152  10.67880
   40000.00   5.602060     0.4313E-03  -5.46188  13.65470
   60000.00   5.778151     0.8587E-04  -6.16286  15.40716
   80000.00   5.903090     0.2724E-04  -6.66157  16.65393
  100000.00   6.000000     0.1116E-04  -7.04900  17.62251
  120000.00   6.079181     0.5380E-05  -7.36590  18.41475
  140000.00   6.146128     0.2902E-05  -7.63402  19.08505
  160000.00   6.204120     0.1699E-05  -7.86640  19.66601
