age =   11.0    [Fe/H] =    0.00

wavele(nm) log wave(A)   Hlam       log(Hlam/Hlam(V))  Hlam(mag(V)) 
      89.50   2.951823     0.8149E-13 -15.31273  38.28182
      90.50   2.956649     0.1353E-12 -15.09240  37.73101
      91.50   2.961421     0.2126E-12 -14.89633  37.24083
      92.50   2.966142     0.1835E-10 -12.96009  32.40022
      93.50   2.970812     0.2567E-10 -12.81443  32.03607
      94.50   2.975432     0.3725E-10 -12.65272  31.63181
      95.50   2.980003     0.5645E-10 -12.47216  31.18039
      96.50   2.984527     0.8261E-10 -12.30680  30.76701
      97.50   2.989005     0.1107E-09 -12.17955  30.44886
      98.50   2.993436     0.1559E-09 -12.03092  30.07730
      99.50   2.997823     0.2126E-09 -11.89633  29.74083
     100.50   3.002166     0.3162E-09 -11.72380  29.30951
     101.50   3.006466     0.4306E-09 -11.58971  28.97429
     102.50   3.010724     0.5036E-09 -11.52174  28.80436
     103.50   3.014940     0.8144E-09 -11.31296  28.28240
     104.50   3.019116     0.1121E-08 -11.17403  27.93507
     105.50   3.023252     0.1441E-08 -11.06520  27.66301
     106.50   3.027350     0.1937E-08 -10.93676  27.34190
     107.50   3.031409     0.2619E-08 -10.80564  27.01409
     108.50   3.035430     0.3520E-08 -10.67723  26.69307
     109.50   3.039414     0.4430E-08 -10.57740  26.44349
     110.50   3.043362     0.2080E-07  -9.90581  24.76453
     111.50   3.047275     0.3624E-07  -9.66459  24.16149
     112.50   3.051152     0.5400E-07  -9.49146  23.72865
     113.50   3.054996     0.8014E-07  -9.31998  23.29995
     114.50   3.058805     0.1074E-06  -9.19262  22.98154
     115.50   3.062582     0.1262E-06  -9.12267  22.80666
     116.50   3.066326     0.1722E-06  -8.98767  22.46918
     117.50   3.070038     0.2225E-06  -8.87655  22.19137
     118.50   3.073718     0.2464E-06  -8.83220  22.08051
     119.50   3.077368     0.2076E-06  -8.90667  22.26668
     120.50   3.080987     0.2295E-06  -8.86303  22.15756
     121.50   3.084576     0.5495E-07  -9.48382  23.70954
     122.50   3.088136     0.3120E-06  -8.72971  21.82427
     123.50   3.091667     0.6191E-06  -8.43205  21.08012
     124.50   3.095169     0.8719E-06  -8.28334  20.70836
     125.50   3.098644     0.1062E-05  -8.19787  20.49467
     126.50   3.102091     0.1140E-05  -8.16684  20.41711
     127.50   3.105510     0.1412E-05  -8.07390  20.18476
     128.50   3.108903     0.1612E-05  -8.01651  20.04126
     129.50   3.112270     0.1964E-05  -7.93073  19.82683
     130.50   3.115611     0.2051E-05  -7.91184  19.77959
     131.50   3.118926     0.2580E-05  -7.81224  19.53060
     132.50   3.122216     0.2698E-05  -7.79277  19.48192
     133.50   3.125481     0.3015E-05  -7.74447  19.36117
     134.50   3.128722     0.3558E-05  -7.67256  19.18141
     135.50   3.131939     0.4139E-05  -7.60688  19.01720
     136.50   3.135133     0.4446E-05  -7.57586  18.93966
     137.50   3.138303     0.4813E-05  -7.54140  18.85351
     138.50   3.141450     0.5304E-05  -7.49923  18.74807
     139.50   3.144574     0.5985E-05  -7.44678  18.61696
     140.50   3.147676     0.7289E-05  -7.36112  18.40280
     141.50   3.150756     0.8294E-05  -7.30505  18.26262
     142.50   3.153815     0.9577E-05  -7.24258  18.10644
     143.50   3.156852     0.1140E-04  -7.16674  17.91685
     144.20   3.158965     0.1480E-04  -7.05365  17.63412
     144.70   3.160469     0.1328E-04  -7.10076  17.75189
     145.50   3.162863     0.1565E-04  -7.02924  17.57310
     146.50   3.165838     0.2011E-04  -6.92033  17.30081
     147.50   3.168792     0.2298E-04  -6.86254  17.15635
     148.50   3.171726     0.2477E-04  -6.82994  17.07486
     149.50   3.174641     0.3255E-04  -6.71127  16.77817
     150.50   3.177536     0.3982E-04  -6.62367  16.55918
     151.20   3.179552     0.3001E-04  -6.74660  16.86649
     151.70   3.180986     0.3856E-04  -6.63773  16.59433
     152.50   3.183270     0.9334E-04  -6.25376  15.63441
     153.50   3.186108     0.1546E-03  -6.03448  15.08619
     154.50   3.188928     0.1277E-03  -6.11779  15.29447
     155.50   3.191730     0.2118E-03  -5.89796  14.74491
     156.50   3.194514     0.1993E-03  -5.92426  14.81064
     157.50   3.197281     0.3734E-03  -5.65161  14.12902
     158.50   3.200029     0.4548E-03  -5.56596  13.91490
     159.50   3.202761     0.5331E-03  -5.49698  13.74245
     160.50   3.205475     0.5716E-03  -5.46674  13.66685
     161.50   3.208173     0.6285E-03  -5.42552  13.56379
     162.50   3.210853     0.7071E-03  -5.37431  13.43578
     163.50   3.213518     0.8307E-03  -5.30437  13.26092
     164.50   3.216166     0.1177E-02  -5.15312  12.88279
     165.50   3.218798     0.7567E-03  -5.34490  13.36226
     166.50   3.221414     0.1360E-02  -5.09017  12.72543
     167.20   3.223236     0.9555E-03  -5.24361  13.10902
     167.70   3.224533     0.3565E-02  -4.67171  11.67928
     168.50   3.226600     0.4027E-02  -4.61888  11.54721
     169.50   3.229170     0.5013E-02  -4.52371  11.30926
     170.50   3.231725     0.5418E-02  -4.48996  11.22491
     171.50   3.234264     0.5240E-02  -4.50449  11.26123
     172.50   3.236789     0.6683E-02  -4.39882  10.99705
     173.50   3.239300     0.8047E-02  -4.31821  10.79552
     174.50   3.241796     0.1104E-01  -4.18095  10.45237
     175.50   3.244277     0.1511E-01  -4.04460  10.11151
     176.50   3.246745     0.1384E-01  -4.08256  10.20639
     177.50   3.249198     0.1539E-01  -4.03647  10.09118
     178.50   3.251638     0.2023E-01  -3.91786   9.79465
     179.50   3.254065     0.2540E-01  -3.81891   9.54727
     180.50   3.256477     0.2622E-01  -3.80514   9.51285
     181.50   3.258877     0.2427E-01  -3.83870   9.59674
     182.50   3.261263     0.3072E-01  -3.73643   9.34109
     183.50   3.263636     0.3208E-01  -3.71752   9.29380
     184.50   3.265996     0.2432E-01  -3.83779   9.59448
     185.50   3.268344     0.3591E-01  -3.66863   9.17158
     186.50   3.270679     0.4299E-01  -3.59043   8.97608
     187.50   3.273001     0.4625E-01  -3.55869   8.89672
     188.50   3.275311     0.4968E-01  -3.52764   8.81909
     189.50   3.277609     0.6516E-01  -3.40980   8.52451
     190.50   3.279895     0.6327E-01  -3.42263   8.55657
     191.50   3.282169     0.7060E-01  -3.37503   8.43758
     192.50   3.284431     0.6949E-01  -3.38188   8.45469
     193.50   3.286681     0.4900E-01  -3.53358   8.83395
     194.50   3.288920     0.9225E-01  -3.25886   8.14715
     195.50   3.291147     0.9667E-01  -3.23852   8.09629
     196.70   3.293804     0.1261E+00  -3.12294   7.80736
     197.60   3.295787     0.1181E+00  -3.15168   7.87921
     198.40   3.297542     0.1439E+00  -3.06568   7.66421
     199.50   3.299943     0.1510E+00  -3.04495   7.61238
     200.50   3.302114     0.1466E+00  -3.05761   7.64401
     201.50   3.304275     0.1608E+00  -3.01749   7.54373
     202.50   3.306425     0.1303E+00  -3.10881   7.77204
     203.50   3.308564     0.1827E+00  -2.96199   7.40498
     204.50   3.310693     0.2123E+00  -2.89697   7.24242
     205.50   3.312812     0.2168E+00  -2.88768   7.21921
     206.50   3.314920     0.2160E+00  -2.88930   7.22326
     207.40   3.316809     0.2364E+00  -2.85014   7.12535
     207.80   3.317646     0.7365E+00  -2.35664   5.89161
     208.50   3.319106     0.1030E+01  -2.21100   5.52750
     209.50   3.321184     0.9401E+00  -2.25066   5.62665
     210.50   3.323252     0.9348E+00  -2.25310   5.63276
     211.50   3.325310     0.1116E+01  -2.17600   5.43999
     212.50   3.327359     0.9691E+00  -2.23746   5.59365
     213.50   3.329398     0.9608E+00  -2.24118   5.60294
     214.50   3.331427     0.1317E+01  -2.10438   5.26094
     215.50   3.333447     0.1247E+01  -2.12783   5.31957
     216.50   3.335458     0.1058E+01  -2.19913   5.49782
     217.50   3.337459     0.1048E+01  -2.20359   5.50898
     218.50   3.339452     0.1543E+01  -2.03531   5.08829
     219.50   3.341434     0.1438E+01  -2.06612   5.16529
     220.50   3.343409     0.1446E+01  -2.06364   5.15911
     221.50   3.345374     0.1029E+01  -2.21151   5.52877
     222.50   3.347330     0.1365E+01  -2.08877   5.22191
     223.50   3.349277     0.1996E+01  -1.92363   4.80907
     224.50   3.351216     0.1900E+01  -1.94508   4.86269
     225.50   3.353147     0.1349E+01  -2.09385   5.23461
     226.50   3.355068     0.1141E+01  -2.16656   5.41640
     227.50   3.356982     0.1272E+01  -2.11917   5.29792
     228.50   3.358886     0.2078E+01  -1.90624   4.76559
     229.50   3.360783     0.1577E+01  -2.02600   5.06501
     230.50   3.362671     0.2091E+01  -1.90355   4.75888
     231.50   3.364551     0.1676E+01  -1.99942   4.99854
     232.50   3.366423     0.1412E+01  -2.07395   5.18487
     233.50   3.368287     0.1211E+01  -2.14052   5.35130
     234.50   3.370143     0.7376E+00  -2.35601   5.89002
     235.50   3.371991     0.1628E+01  -2.01218   5.03044
     236.50   3.373831     0.8809E+00  -2.27888   5.69720
     237.50   3.375664     0.1193E+01  -2.14715   5.36788
     238.50   3.377488     0.6810E+00  -2.39064   5.97660
     239.50   3.379306     0.8863E+00  -2.27623   5.69057
     240.50   3.381115     0.9276E+00  -2.25648   5.64120
     241.50   3.382917     0.1076E+01  -2.19186   5.47965
     242.50   3.384712     0.2118E+01  -1.89786   4.74464
     243.50   3.386499     0.2203E+01  -1.88089   4.70222
     244.50   3.388279     0.2767E+01  -1.78183   4.45457
     245.50   3.390052     0.3047E+01  -1.73988   4.34970
     246.50   3.391817     0.2358E+01  -1.85134   4.62836
     247.50   3.393575     0.2031E+01  -1.91601   4.79003
     248.50   3.395326     0.8715E+00  -2.28354   5.70885
     249.50   3.397071     0.1342E+01  -2.09616   5.24041
     250.50   3.398808     0.2367E+01  -1.84954   4.62385
     251.30   3.400192     0.8786E+00  -2.28001   5.70001
     251.80   3.401056     0.6250E+00  -2.42791   6.06976
     252.50   3.402261     0.7303E+00  -2.36034   5.90086
     253.50   3.403978     0.1633E+01  -2.01089   5.02722
     254.50   3.405688     0.1738E+01  -1.98369   4.95922
     255.50   3.407391     0.4187E+01  -1.60195   4.00487
     256.50   3.409087     0.2789E+01  -1.77832   4.44580
     257.50   3.410777     0.3948E+01  -1.62742   4.06854
     258.50   3.412461     0.3363E+01  -1.69704   4.24261
     259.50   3.414137     0.2964E+01  -1.75197   4.37991
     260.50   3.415808     0.2490E+01  -1.82769   4.56923
     261.50   3.417472     0.2202E+01  -1.88092   4.70230
     262.50   3.419129     0.3225E+01  -1.71530   4.28825
     263.50   3.420781     0.6786E+01  -1.39219   3.48046
     264.50   3.422426     0.9281E+01  -1.25621   3.14052
     265.50   3.424065     0.1440E+02  -1.06536   2.66341
     266.50   3.425697     0.8161E+01  -1.31207   3.28017
     267.50   3.427324     0.9427E+01  -1.24944   3.12361
     268.50   3.428944     0.1157E+02  -1.16049   2.90123
     269.50   3.430559     0.7613E+01  -1.34229   3.35572
     270.50   3.432167     0.1006E+02  -1.22132   3.05331
     271.50   3.433770     0.6733E+01  -1.39562   3.48905
     272.50   3.435366     0.4533E+01  -1.56742   3.91854
     273.50   3.436957     0.6453E+01  -1.41408   3.53520
     274.50   3.438542     0.3462E+01  -1.68449   4.21123
     275.50   3.440122     0.5107E+01  -1.51564   3.78911
     276.50   3.441695     0.7133E+01  -1.37052   3.42630
     277.50   3.443263     0.7512E+01  -1.34803   3.37009
     278.50   3.444825     0.4076E+01  -1.61355   4.03387
     279.50   3.446382     0.1741E+01  -1.98305   4.95763
     280.50   3.447933     0.2164E+01  -1.88859   4.72146
     281.50   3.449478     0.6415E+01  -1.41663   3.54159
     282.50   3.451018     0.9874E+01  -1.22933   3.07332
     283.50   3.452553     0.8939E+01  -1.27254   3.18135
     284.50   3.454082     0.5375E+01  -1.49348   3.73369
     285.50   3.455606     0.2618E+01  -1.80585   4.51463
     286.50   3.457125     0.8404E+01  -1.29932   3.24829
     287.50   3.458638     0.1346E+02  -1.09484   2.73709
     288.50   3.460146     0.1212E+02  -1.14015   2.85038
     289.50   3.461648     0.1640E+02  -1.00886   2.52214
     291.00   3.463893     0.2408E+02  -0.84215   2.10538
     293.00   3.466868     0.2255E+02  -0.87069   2.17671
     295.00   3.469822     0.2231E+02  -0.87527   2.18817
     297.00   3.472756     0.2399E+02  -0.84372   2.10931
     299.00   3.475671     0.2579E+02  -0.81239   2.03098
     301.00   3.478566     0.2614E+02  -0.80658   2.01645
     303.00   3.481443     0.2880E+02  -0.76444   1.91111
     305.00   3.484300     0.2967E+02  -0.75155   1.87886
     307.00   3.487138     0.2908E+02  -0.76016   1.90039
     309.00   3.489959     0.2526E+02  -0.82144   2.05359
     311.00   3.492760     0.3075E+02  -0.73603   1.84007
     313.00   3.495544     0.2731E+02  -0.78756   1.96891
     315.00   3.498311     0.2728E+02  -0.78793   1.96983
     317.00   3.501059     0.3172E+02  -0.72251   1.80626
     319.00   3.503791     0.2682E+02  -0.79533   1.98833
     321.00   3.506505     0.2999E+02  -0.74679   1.86698
     323.00   3.509202     0.2548E+02  -0.81766   2.04416
     325.00   3.511883     0.3748E+02  -0.65005   1.62513
     327.00   3.514548     0.4354E+02  -0.58494   1.46236
     329.00   3.517196     0.4255E+02  -0.59495   1.48737
     331.00   3.519828     0.3884E+02  -0.63448   1.58620
     333.00   3.522444     0.4052E+02  -0.61617   1.54042
     335.00   3.525045     0.3934E+02  -0.62902   1.57256
     337.00   3.527630     0.2775E+02  -0.78052   1.95129
     339.00   3.530200     0.3303E+02  -0.70487   1.76218
     341.00   3.532754     0.3479E+02  -0.68242   1.70604
     343.00   3.535294     0.3774E+02  -0.64707   1.61767
     345.00   3.537819     0.4321E+02  -0.58821   1.47053
     347.00   3.540329     0.4528E+02  -0.56791   1.41978
     349.00   3.542825     0.5055E+02  -0.52011   1.30027
     351.00   3.545307     0.5320E+02  -0.49792   1.24480
     353.00   3.547775     0.4709E+02  -0.55088   1.37720
     355.00   3.550228     0.5248E+02  -0.50383   1.25957
     357.00   3.552668     0.3990E+02  -0.62281   1.55702
     359.00   3.555094     0.4245E+02  -0.59599   1.48997
     361.00   3.557507     0.5264E+02  -0.50247   1.25617
     363.00   3.559907     0.5363E+02  -0.49442   1.23604
     364.00   3.561101     0.5310E+02  -0.49875   1.24687
     365.00   3.562293     0.5606E+02  -0.47518   1.18795
     367.00   3.564666     0.6077E+02  -0.44014   1.10034
     369.00   3.567026     0.5346E+02  -0.49581   1.23951
     371.00   3.569374     0.5577E+02  -0.47739   1.19347
     373.00   3.571709     0.3451E+02  -0.68586   1.71464
     375.00   3.574031     0.3995E+02  -0.62228   1.55569
     377.00   3.576341     0.5438E+02  -0.48838   1.22094
     379.00   3.578639     0.5607E+02  -0.47510   1.18774
     381.00   3.580925     0.5159E+02  -0.51123   1.27807
     383.00   3.583199     0.2727E+02  -0.78810   1.97024
     385.00   3.585461     0.3884E+02  -0.63448   1.58621
     387.00   3.587711     0.3822E+02  -0.64148   1.60371
     389.00   3.589950     0.5081E+02  -0.51787   1.29468
     391.00   3.592177     0.6305E+02  -0.42412   1.06031
     393.00   3.594393     0.2894E+02  -0.76238   1.90596
     395.00   3.596597     0.5361E+02  -0.49459   1.23647
     397.00   3.598790     0.3651E+02  -0.66145   1.65363
     399.00   3.600973     0.8469E+02  -0.29599   0.73997
     401.00   3.603144     0.9434E+02  -0.24914   0.62286
     403.00   3.605305     0.9283E+02  -0.25612   0.64029
     405.00   3.607455     0.8870E+02  -0.27589   0.68972
     407.00   3.609594     0.8292E+02  -0.30516   0.76290
     409.00   3.611723     0.1056E+03  -0.20013   0.50033
     411.00   3.613842     0.9885E+02  -0.22885   0.57213
     413.00   3.615950     0.9537E+02  -0.24441   0.61102
     415.00   3.618048     0.9294E+02  -0.25562   0.63905
     417.00   3.620136     0.9471E+02  -0.24743   0.61858
     419.00   3.622214     0.9247E+02  -0.25781   0.64452
     421.00   3.624282     0.9376E+02  -0.25182   0.62955
     423.00   3.626340     0.8767E+02  -0.28098   0.70246
     425.00   3.628389     0.9522E+02  -0.24510   0.61275
     427.00   3.630428     0.8923E+02  -0.27330   0.68324
     429.00   3.632457     0.8312E+02  -0.30413   0.76033
     431.00   3.634477     0.7164E+02  -0.36867   0.92168
     433.00   3.636488     0.1090E+03  -0.18639   0.46598
     435.00   3.638489     0.1092E+03  -0.18551   0.46377
     437.00   3.640481     0.1188E+03  -0.14895   0.37236
     439.00   3.642465     0.1038E+03  -0.20762   0.51905
     441.00   3.644439     0.1108E+03  -0.17912   0.44779
     443.00   3.646404     0.1208E+03  -0.14172   0.35430
     445.00   3.648360     0.1222E+03  -0.13685   0.34212
     447.00   3.650307     0.1318E+03  -0.10375   0.25938
     449.00   3.652246     0.1360E+03  -0.09021   0.22554
     451.00   3.654176     0.1567E+03  -0.02868   0.07169
     453.00   3.656098     0.1354E+03  -0.09212   0.23029
     455.00   3.658011     0.1430E+03  -0.06844   0.17110
     457.00   3.659916     0.1560E+03  -0.03073   0.07683
     459.00   3.661813     0.1461E+03  -0.05927   0.14817
     461.00   3.663701     0.1512E+03  -0.04429   0.11073
     463.00   3.665581     0.1469E+03  -0.05677   0.14194
     465.00   3.667453     0.1492E+03  -0.05006   0.12514
     467.00   3.669317     0.1567E+03  -0.02876   0.07189
     469.00   3.671173     0.1529E+03  -0.03935   0.09839
     471.00   3.673021     0.1496E+03  -0.04890   0.12226
     473.00   3.674861     0.1548E+03  -0.03407   0.08517
     475.00   3.676694     0.1591E+03  -0.02227   0.05568
     477.00   3.678518     0.1553E+03  -0.03272   0.08179
     479.00   3.680336     0.1568E+03  -0.02845   0.07113
     481.00   3.682145     0.1574E+03  -0.02672   0.06681
     483.00   3.683947     0.1634E+03  -0.01057   0.02642
     485.00   3.685742     0.1557E+03  -0.03157   0.07892
     487.00   3.687529     0.1430E+03  -0.06853   0.17131
     489.00   3.689309     0.1586E+03  -0.02359   0.05896
     491.00   3.691082     0.1596E+03  -0.02081   0.05202
     493.00   3.692847     0.1566E+03  -0.02899   0.07248
     495.00   3.694605     0.1632E+03  -0.01100   0.02751
     497.00   3.696356     0.1566E+03  -0.02898   0.07245
     499.00   3.698101     0.1454E+03  -0.06130   0.15326
     501.00   3.699838     0.1365E+03  -0.08855   0.22139
     503.00   3.701568     0.1465E+03  -0.05783   0.14458
     505.00   3.703291     0.1465E+03  -0.05787   0.14467
     507.00   3.705008     0.1535E+03  -0.03781   0.09453
     509.00   3.706718     0.1447E+03  -0.06339   0.15847
     511.00   3.708421     0.1487E+03  -0.05147   0.12866
     513.00   3.710117     0.1440E+03  -0.06553   0.16383
     515.00   3.711807     0.1386E+03  -0.08203   0.20507
     517.00   3.713490     0.1230E+03  -0.13401   0.33504
     519.00   3.715167     0.1288E+03  -0.11401   0.28501
     521.00   3.716838     0.1418E+03  -0.07226   0.18064
     523.00   3.718502     0.1567E+03  -0.02882   0.07204
     525.00   3.720159     0.1645E+03  -0.00763   0.01906
     527.00   3.721811     0.1429E+03  -0.06871   0.17177
     529.00   3.723456     0.1683E+03   0.00227  -0.00568
     531.00   3.725095     0.1800E+03   0.03145  -0.07862
     533.00   3.726727     0.1565E+03  -0.02925   0.07314
     535.00   3.728354     0.1740E+03   0.01663  -0.04158
     537.00   3.729974     0.1723E+03   0.01234  -0.03086
     539.00   3.731589     0.1683E+03   0.00239  -0.00598
     541.00   3.733197     0.1658E+03  -0.00424   0.01061
     543.00   3.734800     0.1687E+03   0.00341  -0.00852
     545.00   3.736397     0.1723E+03   0.01250  -0.03126
     547.00   3.737987     0.1679E+03   0.00118  -0.00295
     549.00   3.739572     0.1706E+03   0.00822  -0.02056
     551.00   3.741152     0.1674E+03   0.00000   0.00000
     553.00   3.742725     0.1745E+03   0.01794  -0.04486
     555.00   3.744293     0.1779E+03   0.02635  -0.06588
     557.00   3.745855     0.1739E+03   0.01652  -0.04129
     559.00   3.747412     0.1690E+03   0.00410  -0.01025
     561.00   3.748963     0.1752E+03   0.01965  -0.04912
     563.00   3.750508     0.1740E+03   0.01684  -0.04209
     565.00   3.752048     0.1774E+03   0.02518  -0.06295
     567.00   3.753583     0.1731E+03   0.01447  -0.03618
     569.00   3.755112     0.1792E+03   0.02952  -0.07380
     571.00   3.756636     0.1733E+03   0.01489  -0.03722
     573.00   3.758155     0.1889E+03   0.05234  -0.13085
     575.00   3.759668     0.1822E+03   0.03675  -0.09188
     577.00   3.761176     0.1846E+03   0.04243  -0.10606
     579.00   3.762679     0.1772E+03   0.02462  -0.06154
     581.00   3.764176     0.1851E+03   0.04360  -0.10901
     583.00   3.765669     0.1900E+03   0.05499  -0.13748
     585.00   3.767156     0.1825E+03   0.03752  -0.09379
     587.00   3.768638     0.1821E+03   0.03651  -0.09127
     589.00   3.770115     0.1643E+03  -0.00830   0.02075
     591.00   3.771587     0.1792E+03   0.02947  -0.07368
     593.00   3.773055     0.1802E+03   0.03191  -0.07977
     595.00   3.774517     0.1807E+03   0.03316  -0.08291
     597.00   3.775974     0.1846E+03   0.04252  -0.10629
     599.00   3.777427     0.1820E+03   0.03629  -0.09074
     601.00   3.778874     0.1799E+03   0.03113  -0.07783
     603.00   3.780317     0.1853E+03   0.04409  -0.11023
     605.00   3.781755     0.1893E+03   0.05337  -0.13341
     607.00   3.783189     0.1887E+03   0.05205  -0.13013
     609.00   3.784617     0.1823E+03   0.03701  -0.09252
     611.00   3.786041     0.1837E+03   0.04025  -0.10062
     613.00   3.787461     0.1737E+03   0.01602  -0.04004
     615.00   3.788875     0.1782E+03   0.02708  -0.06771
     617.00   3.790285     0.1661E+03  -0.00343   0.00858
     619.00   3.791691     0.1761E+03   0.02206  -0.05516
     621.00   3.793092     0.1741E+03   0.01708  -0.04269
     623.00   3.794488     0.1685E+03   0.00276  -0.00690
     625.00   3.795880     0.1637E+03  -0.00979   0.02447
     627.00   3.797267     0.1723E+03   0.01246  -0.03114
     629.00   3.798651     0.1768E+03   0.02359  -0.05898
     631.00   3.800029     0.1733E+03   0.01501  -0.03752
     633.00   3.801404     0.1768E+03   0.02379  -0.05947
     635.00   3.802774     0.1783E+03   0.02745  -0.06863
     637.00   3.804139     0.1782E+03   0.02702  -0.06754
     639.00   3.805501     0.1820E+03   0.03620  -0.09050
     641.00   3.806858     0.1785E+03   0.02788  -0.06969
     643.00   3.808211     0.1806E+03   0.03288  -0.08219
     645.00   3.809560     0.1801E+03   0.03158  -0.07895
     647.00   3.810904     0.1799E+03   0.03116  -0.07791
     649.00   3.812245     0.1766E+03   0.02329  -0.05822
     651.00   3.813581     0.1835E+03   0.03987  -0.09967
     653.00   3.814913     0.1845E+03   0.04206  -0.10516
     655.00   3.816241     0.1801E+03   0.03163  -0.07908
     657.00   3.817565     0.1713E+03   0.00987  -0.02467
     659.00   3.818885     0.1797E+03   0.03081  -0.07701
     661.00   3.820201     0.1814E+03   0.03471  -0.08678
     663.00   3.821513     0.1785E+03   0.02785  -0.06963
     665.00   3.822822     0.1766E+03   0.02315  -0.05788
     667.00   3.824126     0.1716E+03   0.01060  -0.02649
     669.00   3.825426     0.1731E+03   0.01439  -0.03598
     671.00   3.826723     0.1651E+03  -0.00607   0.01516
     673.00   3.828015     0.1690E+03   0.00412  -0.01030
     675.00   3.829304     0.1659E+03  -0.00398   0.00995
     677.00   3.830589     0.1670E+03  -0.00114   0.00285
     679.00   3.831870     0.1653E+03  -0.00546   0.01366
     681.00   3.833147     0.1666E+03  -0.00205   0.00513
     683.00   3.834421     0.1695E+03   0.00535  -0.01336
     685.00   3.835690     0.1656E+03  -0.00473   0.01182
     687.00   3.836957     0.1690E+03   0.00405  -0.01013
     689.00   3.838219     0.1729E+03   0.01400  -0.03499
     691.00   3.839478     0.1745E+03   0.01793  -0.04484
     693.00   3.840733     0.1740E+03   0.01672  -0.04180
     695.00   3.841985     0.1749E+03   0.01900  -0.04751
     697.00   3.843233     0.1790E+03   0.02903  -0.07259
     699.00   3.844477     0.1799E+03   0.03131  -0.07828
     701.00   3.845718     0.1791E+03   0.02936  -0.07339
     703.00   3.846955     0.1810E+03   0.03389  -0.08472
     705.00   3.848189     0.1772E+03   0.02459  -0.06147
     707.00   3.849419     0.1674E+03   0.00006  -0.00016
     709.00   3.850646     0.1588E+03  -0.02304   0.05760
     711.00   3.851870     0.1534E+03  -0.03795   0.09488
     713.00   3.853090     0.1491E+03  -0.05028   0.12570
     715.00   3.854306     0.1487E+03  -0.05138   0.12845
     717.00   3.855519     0.1513E+03  -0.04400   0.11000
     719.00   3.856729     0.1485E+03  -0.05213   0.13034
     721.00   3.857935     0.1534E+03  -0.03806   0.09514
     723.00   3.859138     0.1585E+03  -0.02376   0.05940
     725.00   3.860338     0.1611E+03  -0.01683   0.04207
     727.00   3.861534     0.1636E+03  -0.01013   0.02534
     729.00   3.862728     0.1642E+03  -0.00851   0.02126
     731.00   3.863917     0.1724E+03   0.01283  -0.03207
     733.00   3.865104     0.1729E+03   0.01395  -0.03488
     735.00   3.866287     0.1786E+03   0.02801  -0.07002
     737.00   3.867467     0.1853E+03   0.04397  -0.10992
     739.00   3.868644     0.1817E+03   0.03562  -0.08905
     741.00   3.869818     0.1847E+03   0.04263  -0.10657
     743.00   3.870989     0.1901E+03   0.05525  -0.13811
     745.00   3.872156     0.1895E+03   0.05379  -0.13448
     747.00   3.873321     0.1956E+03   0.06756  -0.16891
     749.00   3.874482     0.1948E+03   0.06584  -0.16461
     751.00   3.875640     0.1963E+03   0.06900  -0.17249
     753.00   3.876795     0.1999E+03   0.07705  -0.19262
     755.00   3.877947     0.2016E+03   0.08061  -0.20153
     757.00   3.879096     0.2012E+03   0.07985  -0.19963
     759.00   3.880242     0.1936E+03   0.06302  -0.15756
     761.00   3.881385     0.1862E+03   0.04611  -0.11527
     763.00   3.882524     0.1784E+03   0.02763  -0.06907
     765.00   3.883662     0.1700E+03   0.00667  -0.01668
     767.00   3.884795     0.1598E+03  -0.02029   0.05074
     769.00   3.885926     0.1631E+03  -0.01136   0.02840
     771.00   3.887054     0.1600E+03  -0.01965   0.04914
     773.00   3.888180     0.1604E+03  -0.01858   0.04645
     775.00   3.889302     0.1592E+03  -0.02198   0.05494
     777.00   3.890421     0.1620E+03  -0.01439   0.03597
     779.00   3.891537     0.1626E+03  -0.01263   0.03158
     781.00   3.892651     0.1634E+03  -0.01055   0.02636
     783.00   3.893762     0.1635E+03  -0.01025   0.02563
     785.00   3.894870     0.1616E+03  -0.01531   0.03827
     787.00   3.895975     0.1652E+03  -0.00593   0.01482
     789.00   3.897077     0.1649E+03  -0.00661   0.01652
     791.00   3.898176     0.1605E+03  -0.01823   0.04556
     793.00   3.899273     0.1624E+03  -0.01323   0.03307
     795.00   3.900367     0.1627E+03  -0.01246   0.03115
     797.00   3.901458     0.1675E+03   0.00030  -0.00074
     799.00   3.902547     0.1680E+03   0.00151  -0.00377
     801.00   3.903632     0.1722E+03   0.01231  -0.03078
     803.00   3.904716     0.1738E+03   0.01620  -0.04050
     805.00   3.905796     0.1735E+03   0.01552  -0.03881
     807.00   3.906873     0.1789E+03   0.02877  -0.07193
     809.00   3.907948     0.1780E+03   0.02664  -0.06661
     811.00   3.909021     0.1801E+03   0.03177  -0.07941
     813.00   3.910090     0.1861E+03   0.04592  -0.11480
     815.00   3.911158     0.1889E+03   0.05252  -0.13130
     817.00   3.912222     0.1901E+03   0.05522  -0.13805
     819.00   3.913284     0.1865E+03   0.04681  -0.11702
     821.00   3.914343     0.1798E+03   0.03108  -0.07770
     823.00   3.915400     0.1805E+03   0.03256  -0.08140
     825.00   3.916454     0.1799E+03   0.03116  -0.07791
     827.00   3.917506     0.1808E+03   0.03343  -0.08358
     829.00   3.918555     0.1786E+03   0.02806  -0.07014
     831.00   3.919601     0.1730E+03   0.01429  -0.03572
     833.00   3.920645     0.1716E+03   0.01081  -0.02701
     835.00   3.921686     0.1710E+03   0.00923  -0.02307
     837.00   3.922725     0.1722E+03   0.01219  -0.03048
     839.00   3.923762     0.1675E+03   0.00011  -0.00028
     841.00   3.924796     0.1725E+03   0.01288  -0.03219
     843.00   3.925828     0.1668E+03  -0.00169   0.00423
     845.00   3.926857     0.1589E+03  -0.02277   0.05692
     847.00   3.927883     0.1581E+03  -0.02498   0.06244
     849.00   3.928908     0.1613E+03  -0.01622   0.04054
     851.00   3.929929     0.1543E+03  -0.03537   0.08844
     853.00   3.930949     0.1608E+03  -0.01746   0.04365
     855.00   3.931966     0.1564E+03  -0.02968   0.07420
     857.00   3.932981     0.1660E+03  -0.00374   0.00935
     859.00   3.933993     0.1645E+03  -0.00777   0.01943
     861.00   3.935003     0.1674E+03  -0.00002   0.00004
     863.00   3.936011     0.1711E+03   0.00937  -0.02344
     865.00   3.937016     0.1726E+03   0.01325  -0.03313
     867.00   3.938019     0.1629E+03  -0.01197   0.02991
     869.00   3.939020     0.1702E+03   0.00712  -0.01781
     871.00   3.940018     0.1754E+03   0.02033  -0.05083
     873.00   3.941014     0.1769E+03   0.02387  -0.05967
     875.00   3.942008     0.1759E+03   0.02150  -0.05374
     877.00   3.943000     0.1780E+03   0.02650  -0.06625
     879.00   3.943989     0.1814E+03   0.03480  -0.08700
     881.00   3.944976     0.1785E+03   0.02779  -0.06948
     883.00   3.945961     0.1807E+03   0.03325  -0.08314
     885.00   3.946943     0.1777E+03   0.02576  -0.06441
     887.00   3.947924     0.1702E+03   0.00706  -0.01765
     889.00   3.948902     0.1710E+03   0.00930  -0.02326
     891.00   3.949878     0.1731E+03   0.01457  -0.03643
     893.00   3.950851     0.1707E+03   0.00854  -0.02134
     895.00   3.951823     0.1716E+03   0.01067  -0.02668
     897.00   3.952792     0.1722E+03   0.01217  -0.03043
     899.00   3.953760     0.1726E+03   0.01327  -0.03317
     901.00   3.954725     0.1689E+03   0.00374  -0.00936
     903.00   3.955688     0.1754E+03   0.02014  -0.05034
     905.00   3.956649     0.1807E+03   0.03313  -0.08282
     907.00   3.957607     0.1811E+03   0.03407  -0.08517
     909.00   3.958564     0.1784E+03   0.02760  -0.06899
     911.00   3.959518     0.1804E+03   0.03245  -0.08113
     913.00   3.960471     0.1829E+03   0.03849  -0.09622
     915.00   3.961421     0.1819E+03   0.03598  -0.08994
     917.00   3.962369     0.1815E+03   0.03516  -0.08789
     919.00   3.963315     0.1829E+03   0.03830  -0.09574
     921.00   3.964260     0.1763E+03   0.02236  -0.05591
     923.00   3.965202     0.1745E+03   0.01808  -0.04519
     925.00   3.966142     0.1725E+03   0.01302  -0.03256
     927.00   3.967080     0.1747E+03   0.01851  -0.04628
     929.00   3.968016     0.1710E+03   0.00926  -0.02314
     931.00   3.968950     0.1719E+03   0.01148  -0.02871
     933.00   3.969882     0.1727E+03   0.01348  -0.03370
     935.00   3.970812     0.1725E+03   0.01288  -0.03221
     937.00   3.971740     0.1690E+03   0.00409  -0.01023
     939.00   3.972666     0.1726E+03   0.01315  -0.03287
     941.00   3.973590     0.1701E+03   0.00681  -0.01703
     943.00   3.974512     0.1733E+03   0.01503  -0.03758
     945.00   3.975432     0.1713E+03   0.00989  -0.02472
     947.00   3.976350     0.1749E+03   0.01901  -0.04753
     949.00   3.977266     0.1755E+03   0.02034  -0.05086
     951.00   3.978180     0.1717E+03   0.01107  -0.02768
     953.00   3.979093     0.1736E+03   0.01577  -0.03942
     955.00   3.980003     0.1714E+03   0.01018  -0.02545
     957.00   3.980912     0.1729E+03   0.01394  -0.03484
     959.00   3.981819     0.1752E+03   0.01983  -0.04958
     961.00   3.982723     0.1734E+03   0.01515  -0.03789
     963.00   3.983626     0.1746E+03   0.01816  -0.04540
     965.00   3.984527     0.1721E+03   0.01209  -0.03022
     967.00   3.985426     0.1725E+03   0.01293  -0.03232
     969.00   3.986324     0.1743E+03   0.01756  -0.04390
     971.00   3.987219     0.1721E+03   0.01199  -0.02998
     973.00   3.988113     0.1706E+03   0.00823  -0.02057
     975.00   3.989005     0.1702E+03   0.00724  -0.01810
     977.00   3.989895     0.1708E+03   0.00855  -0.02137
     979.00   3.990783     0.1690E+03   0.00396  -0.00991
     981.00   3.991669     0.1723E+03   0.01252  -0.03131
     983.00   3.992553     0.1710E+03   0.00908  -0.02269
     985.00   3.993436     0.1718E+03   0.01132  -0.02830
     987.00   3.994317     0.1707E+03   0.00832  -0.02079
     989.00   3.995196     0.1704E+03   0.00758  -0.01894
     991.00   3.996074     0.1701E+03   0.00682  -0.01705
     993.00   3.996949     0.1707E+03   0.00842  -0.02106
     995.00   3.997823     0.1710E+03   0.00930  -0.02326
     997.00   3.998695     0.1711E+03   0.00945  -0.02362
     999.00   3.999566     0.1706E+03   0.00817  -0.02043
    1003.00   4.001301     0.1703E+03   0.00744  -0.01860
    1008.00   4.003461     0.1691E+03   0.00436  -0.01090
    1013.00   4.005610     0.1705E+03   0.00801  -0.02003
    1018.00   4.007748     0.1688E+03   0.00344  -0.00860
    1023.00   4.009875     0.1690E+03   0.00416  -0.01041
    1028.00   4.011993     0.1691E+03   0.00439  -0.01097
    1033.00   4.014100     0.1674E+03  -0.00018   0.00045
    1038.00   4.016197     0.1665E+03  -0.00247   0.00617
    1043.00   4.018284     0.1670E+03  -0.00097   0.00243
    1048.00   4.020361     0.1659E+03  -0.00392   0.00981
    1053.00   4.022429     0.1650E+03  -0.00639   0.01597
    1058.00   4.024486     0.1627E+03  -0.01234   0.03086
    1063.00   4.026533     0.1619E+03  -0.01446   0.03616
    1068.00   4.028571     0.1605E+03  -0.01822   0.04555
    1073.00   4.030600     0.1610E+03  -0.01711   0.04277
    1078.00   4.032619     0.1598E+03  -0.02025   0.05063
    1083.00   4.034628     0.1577E+03  -0.02597   0.06492
    1088.00   4.036629     0.1568E+03  -0.02842   0.07105
    1093.00   4.038620     0.1563E+03  -0.02999   0.07498
    1098.00   4.040603     0.1540E+03  -0.03626   0.09064
    1103.00   4.042576     0.1534E+03  -0.03800   0.09499
    1108.00   4.044539     0.1513E+03  -0.04395   0.10988
    1113.00   4.046495     0.1512E+03  -0.04440   0.11100
    1118.00   4.048442     0.1503E+03  -0.04679   0.11697
    1123.00   4.050380     0.1504E+03  -0.04656   0.11641
    1128.00   4.052309     0.1495E+03  -0.04913   0.12282
    1133.00   4.054230     0.1494E+03  -0.04943   0.12358
    1138.00   4.056142     0.1488E+03  -0.05133   0.12834
    1143.00   4.058046     0.1478E+03  -0.05413   0.13533
    1148.00   4.059942     0.1489E+03  -0.05105   0.12763
    1153.00   4.061830     0.1487E+03  -0.05144   0.12860
    1158.00   4.063708     0.1475E+03  -0.05503   0.13759
    1163.00   4.065579     0.1461E+03  -0.05919   0.14798
    1168.00   4.067443     0.1461E+03  -0.05931   0.14827
    1173.00   4.069298     0.1464E+03  -0.05814   0.14536
    1178.00   4.071145     0.1444E+03  -0.06415   0.16038
    1183.00   4.072985     0.1434E+03  -0.06738   0.16846
    1188.00   4.074817     0.1419E+03  -0.07172   0.17929
    1193.00   4.076640     0.1435E+03  -0.06687   0.16717
    1198.00   4.078457     0.1402E+03  -0.07706   0.19265
    1203.00   4.080266     0.1420E+03  -0.07150   0.17874
    1208.00   4.082067     0.1410E+03  -0.07454   0.18636
    1213.00   4.083861     0.1411E+03  -0.07429   0.18573
    1218.00   4.085648     0.1412E+03  -0.07399   0.18497
    1223.00   4.087426     0.1405E+03  -0.07624   0.19061
    1228.00   4.089198     0.1397E+03  -0.07868   0.19671
    1233.00   4.090963     0.1390E+03  -0.08080   0.20199
    1238.00   4.092721     0.1386E+03  -0.08198   0.20495
    1243.00   4.094471     0.1371E+03  -0.08679   0.21698
    1248.00   4.096214     0.1371E+03  -0.08673   0.21681
    1253.00   4.097951     0.1362E+03  -0.08977   0.22443
    1258.00   4.099681     0.1356E+03  -0.09143   0.22856
    1263.00   4.101403     0.1352E+03  -0.09282   0.23205
    1268.00   4.103119     0.1343E+03  -0.09565   0.23913
    1273.00   4.104828     0.1342E+03  -0.09597   0.23994
    1278.00   4.106531     0.1343E+03  -0.09586   0.23965
    1283.00   4.108227     0.1311E+03  -0.10629   0.26573
    1288.00   4.109916     0.1324E+03  -0.10195   0.25488
    1293.00   4.111598     0.1313E+03  -0.10549   0.26373
    1298.00   4.113275     0.1321E+03  -0.10286   0.25715
    1303.00   4.114944     0.1309E+03  -0.10699   0.26748
    1308.00   4.116608     0.1310E+03  -0.10656   0.26640
    1313.00   4.118265     0.1290E+03  -0.11320   0.28299
    1318.00   4.119915     0.1286E+03  -0.11470   0.28675
    1323.00   4.121560     0.1285E+03  -0.11485   0.28713
    1328.00   4.123198     0.1268E+03  -0.12057   0.30144
    1333.00   4.124830     0.1270E+03  -0.11997   0.29992
    1338.00   4.126456     0.1260E+03  -0.12342   0.30854
    1343.00   4.128076     0.1261E+03  -0.12309   0.30773
    1348.00   4.129690     0.1252E+03  -0.12612   0.31531
    1353.00   4.131298     0.1246E+03  -0.12821   0.32053
    1358.00   4.132900     0.1231E+03  -0.13365   0.33412
    1363.00   4.134496     0.1228E+03  -0.13452   0.33629
    1368.00   4.136086     0.1235E+03  -0.13225   0.33063
    1373.00   4.137671     0.1240E+03  -0.13043   0.32608
    1378.00   4.139249     0.1239E+03  -0.13078   0.32694
    1383.00   4.140822     0.1239E+03  -0.13087   0.32717
    1388.00   4.142389     0.1228E+03  -0.13470   0.33675
    1393.00   4.143951     0.1142E+03  -0.16615   0.41536
    1398.00   4.145507     0.1149E+03  -0.16352   0.40879
    1403.00   4.147058     0.1141E+03  -0.16663   0.41658
    1408.00   4.148602     0.1148E+03  -0.16395   0.40988
    1413.00   4.150142     0.1139E+03  -0.16720   0.41800
    1418.00   4.151676     0.1146E+03  -0.16451   0.41126
    1423.00   4.153205     0.1139E+03  -0.16747   0.41869
    1428.00   4.154728     0.1129E+03  -0.17104   0.42761
    1433.00   4.156246     0.1148E+03  -0.16387   0.40966
    1438.00   4.157759     0.1154E+03  -0.16171   0.40427
    1443.00   4.159266     0.1136E+03  -0.16826   0.42064
    1448.00   4.160769     0.1154E+03  -0.16176   0.40440
    1453.00   4.162266     0.1146E+03  -0.16458   0.41146
    1457.00   4.163460     0.1152E+03  -0.16251   0.40627
    1462.00   4.164948     0.1105E+03  -0.18036   0.45091
    1468.00   4.166726     0.1112E+03  -0.17776   0.44439
    1473.00   4.168202     0.1106E+03  -0.18001   0.45003
    1478.00   4.169674     0.1115E+03  -0.17656   0.44139
    1483.00   4.171141     0.1121E+03  -0.17428   0.43570
    1488.00   4.172603     0.1116E+03  -0.17618   0.44044
    1493.00   4.174060     0.1138E+03  -0.16755   0.41889
    1498.00   4.175512     0.1134E+03  -0.16903   0.42258
    1503.00   4.176959     0.1125E+03  -0.17251   0.43128
    1508.00   4.178401     0.1130E+03  -0.17089   0.42722
    1513.00   4.179839     0.1147E+03  -0.16433   0.41081
    1518.00   4.181272     0.1151E+03  -0.16257   0.40642
    1523.00   4.182700     0.1152E+03  -0.16243   0.40607
    1528.00   4.184123     0.1159E+03  -0.15962   0.39904
    1533.00   4.185542     0.1157E+03  -0.16045   0.40114
    1538.00   4.186956     0.1135E+03  -0.16892   0.42230
    1543.00   4.188366     0.1146E+03  -0.16462   0.41155
    1548.00   4.189771     0.1150E+03  -0.16314   0.40786
    1553.00   4.191172     0.1145E+03  -0.16486   0.41216
    1558.00   4.192567     0.1111E+03  -0.17809   0.44523
    1563.00   4.193959     0.1125E+03  -0.17280   0.43199
    1568.00   4.195346     0.1124E+03  -0.17311   0.43278
    1573.00   4.196729     0.1144E+03  -0.16547   0.41367
    1578.00   4.198107     0.1047E+03  -0.20375   0.50938
    1583.00   4.199481     0.1084E+03  -0.18878   0.47195
    1588.00   4.200850     0.1089E+03  -0.18681   0.46702
    1593.00   4.202216     0.1118E+03  -0.17528   0.43821
    1598.00   4.203577     0.1145E+03  -0.16513   0.41283
    1605.00   4.205475     0.1087E+03  -0.18768   0.46919
    1615.00   4.208173     0.1119E+03  -0.17499   0.43747
    1625.00   4.210854     0.1074E+03  -0.19281   0.48203
    1635.00   4.213518     0.1110E+03  -0.17850   0.44626
    1645.00   4.216166     0.1067E+03  -0.19553   0.48882
    1655.00   4.218798     0.1086E+03  -0.18814   0.47035
    1665.00   4.221415     0.1053E+03  -0.20136   0.50341
    1675.00   4.224015     0.1059E+03  -0.19885   0.49712
    1685.00   4.226600     0.1059E+03  -0.19908   0.49770
    1695.00   4.229170     0.1036E+03  -0.20837   0.52092
    1705.00   4.231725     0.1021E+03  -0.21473   0.53683
    1715.00   4.234264     0.1000E+03  -0.22367   0.55918
    1725.00   4.236789     0.9814E+02  -0.23196   0.57990
    1735.00   4.239300     0.9536E+02  -0.24447   0.61117
    1745.00   4.241796     0.9412E+02  -0.25015   0.62537
    1755.00   4.244277     0.9293E+02  -0.25567   0.63919
    1765.00   4.246745     0.9078E+02  -0.26584   0.66460
    1775.00   4.249198     0.8879E+02  -0.27545   0.68862
    1785.00   4.251638     0.8760E+02  -0.28132   0.70330
    1795.00   4.254065     0.8564E+02  -0.29113   0.72783
    1805.00   4.256477     0.8386E+02  -0.30028   0.75071
    1815.00   4.258877     0.8237E+02  -0.30802   0.77006
    1825.00   4.261263     0.8115E+02  -0.31450   0.78626
    1835.00   4.263636     0.7993E+02  -0.32109   0.80273
    1845.00   4.265996     0.7842E+02  -0.32940   0.82349
    1855.00   4.268344     0.7765E+02  -0.33368   0.83421
    1865.00   4.270679     0.7593E+02  -0.34338   0.85846
    1875.00   4.273001     0.7438E+02  -0.35235   0.88089
    1885.00   4.275311     0.7360E+02  -0.35694   0.89235
    1895.00   4.277609     0.7119E+02  -0.37141   0.92852
    1905.00   4.279895     0.7103E+02  -0.37238   0.93094
    1915.00   4.282169     0.6951E+02  -0.38176   0.95440
    1925.00   4.284431     0.6826E+02  -0.38963   0.97408
    1935.00   4.286681     0.6645E+02  -0.40135   1.00337
    1945.00   4.288919     0.6484E+02  -0.41195   1.02987
    1955.00   4.291147     0.6424E+02  -0.41599   1.03998
    1965.00   4.293363     0.6297E+02  -0.42471   1.06178
    1975.00   4.295567     0.6145E+02  -0.43529   1.08821
    1985.00   4.297760     0.6054E+02  -0.44180   1.10451
    1995.00   4.299943     0.5971E+02  -0.44777   1.11943
    2005.00   4.302114     0.5917E+02  -0.45171   1.12928
    2015.00   4.304275     0.5833E+02  -0.45791   1.14478
    2025.00   4.306425     0.5703E+02  -0.46773   1.16933
    2035.00   4.308564     0.5622E+02  -0.47390   1.18476
    2045.00   4.310693     0.5583E+02  -0.47693   1.19233
    2055.00   4.312812     0.5492E+02  -0.48410   1.21026
    2065.00   4.314920     0.5401E+02  -0.49133   1.22832
    2075.00   4.317018     0.5336E+02  -0.49662   1.24155
    2085.00   4.319106     0.5257E+02  -0.50312   1.25780
    2095.00   4.321184     0.5165E+02  -0.51077   1.27691
    2105.00   4.323252     0.5123E+02  -0.51427   1.28568
    2115.00   4.325311     0.5038E+02  -0.52160   1.30400
    2125.00   4.327359     0.4962E+02  -0.52815   1.32038
    2135.00   4.329398     0.4909E+02  -0.53280   1.33201
    2145.00   4.331428     0.4834E+02  -0.53953   1.34882
    2155.00   4.333447     0.4760E+02  -0.54618   1.36545
    2165.00   4.335458     0.4671E+02  -0.55439   1.38597
    2175.00   4.337460     0.4606E+02  -0.56045   1.40113
    2185.00   4.339452     0.4548E+02  -0.56598   1.41494
    2195.00   4.341434     0.4489E+02  -0.57168   1.42919
    2205.00   4.343409     0.4389E+02  -0.58148   1.45369
    2215.00   4.345374     0.4363E+02  -0.58408   1.46019
    2225.00   4.347330     0.4267E+02  -0.59369   1.48422
    2235.00   4.349277     0.4210E+02  -0.59951   1.49878
    2245.00   4.351216     0.4149E+02  -0.60591   1.51477
    2255.00   4.353147     0.4094E+02  -0.61166   1.52916
    2265.00   4.355068     0.4013E+02  -0.62031   1.55078
    2275.00   4.356981     0.3978E+02  -0.62420   1.56049
    2285.00   4.358886     0.3899E+02  -0.63285   1.58212
    2295.00   4.360783     0.3121E+02  -0.72946   1.82366
    2305.00   4.362671     0.3468E+02  -0.68374   1.70934
    2315.00   4.364551     0.3458E+02  -0.68495   1.71237
    2325.00   4.366423     0.2901E+02  -0.76126   1.90314
    2335.00   4.368287     0.3181E+02  -0.72120   1.80299
    2345.00   4.370143     0.2916E+02  -0.75902   1.89755
    2355.00   4.371991     0.2694E+02  -0.79335   1.98338
    2365.00   4.373831     0.2933E+02  -0.75656   1.89139
    2375.00   4.375664     0.2732E+02  -0.78730   1.96826
    2385.00   4.377488     0.2538E+02  -0.81933   2.04833
    2395.00   4.379306     0.2722E+02  -0.78885   1.97212
    2405.00   4.381115     0.2605E+02  -0.80804   2.02010
    2415.00   4.382917     0.2396E+02  -0.84433   2.11082
    2425.00   4.384712     0.2547E+02  -0.81772   2.04431
    2435.00   4.386499     0.2421E+02  -0.83990   2.09975
    2445.00   4.388279     0.2432E+02  -0.83791   2.09477
    2455.00   4.390052     0.2343E+02  -0.85409   2.13521
    2465.00   4.391817     0.2334E+02  -0.85563   2.13908
    2475.00   4.393575     0.2270E+02  -0.86772   2.16929
    2485.00   4.395327     0.1972E+02  -0.92888   2.32220
    2495.00   4.397071     0.1882E+02  -0.94920   2.37299
    2505.00   4.398808     0.1914E+02  -0.94179   2.35448
    2515.00   4.400538     0.1830E+02  -0.96136   2.40340
    2525.00   4.402262     0.1878E+02  -0.95013   2.37532
    2535.00   4.403978     0.1886E+02  -0.94835   2.37086
    2545.00   4.405688     0.1870E+02  -0.95195   2.37987
    2555.00   4.407391     0.1873E+02  -0.95136   2.37841
    2565.00   4.409087     0.1893E+02  -0.94676   2.36689
    2575.00   4.410777     0.1912E+02  -0.94230   2.35574
    2585.00   4.412460     0.1871E+02  -0.95178   2.37946
    2595.00   4.414137     0.1880E+02  -0.94973   2.37433
    2605.00   4.415808     0.1882E+02  -0.94931   2.37327
    2615.00   4.417472     0.1854E+02  -0.95574   2.38935
    2625.00   4.419129     0.1828E+02  -0.96177   2.40442
    2635.00   4.420781     0.1830E+02  -0.96148   2.40370
    2645.00   4.422426     0.1815E+02  -0.96500   2.41250
    2655.00   4.424065     0.1794E+02  -0.97005   2.42514
    2665.00   4.425697     0.1768E+02  -0.97637   2.44092
    2675.00   4.427324     0.1783E+02  -0.97264   2.43161
    2685.00   4.428945     0.1765E+02  -0.97698   2.44246
    2695.00   4.430559     0.1736E+02  -0.98438   2.46094
    2705.00   4.432167     0.1734E+02  -0.98477   2.46193
    2715.00   4.433770     0.1719E+02  -0.98846   2.47115
    2725.00   4.435367     0.1709E+02  -0.99095   2.47738
    2735.00   4.436957     0.1683E+02  -0.99769   2.49423
    2745.00   4.438542     0.1679E+02  -0.99867   2.49668
    2755.00   4.440122     0.1669E+02  -1.00134   2.50335
    2765.00   4.441695     0.1649E+02  -1.00649   2.51623
    2775.00   4.443263     0.1629E+02  -1.01182   2.52954
    2785.00   4.444825     0.1623E+02  -1.01349   2.53372
    2795.00   4.446382     0.1616E+02  -1.01546   2.53864
    2805.00   4.447933     0.1600E+02  -1.01980   2.54951
    2815.00   4.449478     0.1580E+02  -1.02512   2.56281
    2825.00   4.451018     0.1569E+02  -1.02818   2.57046
    2835.00   4.452553     0.1560E+02  -1.03079   2.57698
    2845.00   4.454082     0.1542E+02  -1.03565   2.58913
    2855.00   4.455606     0.1528E+02  -1.03978   2.59945
    2865.00   4.457125     0.1514E+02  -1.04361   2.60904
    2875.00   4.458638     0.1500E+02  -1.04761   2.61903
    2885.00   4.460146     0.1488E+02  -1.05132   2.62831
    2895.00   4.461648     0.1474E+02  -1.05522   2.63805
    2905.00   4.463146     0.1460E+02  -1.05951   2.64878
    2915.00   4.464639     0.1448E+02  -1.06310   2.65776
    2925.00   4.466126     0.1427E+02  -1.06939   2.67349
    2935.00   4.467608     0.1421E+02  -1.07108   2.67770
    2945.00   4.469085     0.1406E+02  -1.07596   2.68990
    2955.00   4.470557     0.1393E+02  -1.07977   2.69943
    2965.00   4.472025     0.1383E+02  -1.08305   2.70762
    2975.00   4.473487     0.1370E+02  -1.08704   2.71759
    2985.00   4.474944     0.1356E+02  -1.09170   2.72926
    2995.00   4.476397     0.1342E+02  -1.09603   2.74008
    3005.00   4.477844     0.1331E+02  -1.09975   2.74939
    3015.00   4.479287     0.1322E+02  -1.10244   2.75610
    3025.00   4.480725     0.1310E+02  -1.10666   2.76665
    3035.00   4.482159     0.1297E+02  -1.11093   2.77733
    3045.00   4.483587     0.1290E+02  -1.11310   2.78274
    3055.00   4.485011     0.1279E+02  -1.11700   2.79251
    3065.00   4.486430     0.1268E+02  -1.12068   2.80170
    3075.00   4.487845     0.1260E+02  -1.12356   2.80891
    3085.00   4.489255     0.1246E+02  -1.12824   2.82060
    3095.00   4.490661     0.1238E+02  -1.13125   2.82811
    3105.00   4.492062     0.1230E+02  -1.13407   2.83518
    3115.00   4.493458     0.1214E+02  -1.13974   2.84936
    3125.00   4.494850     0.1207E+02  -1.14210   2.85524
    3135.00   4.496238     0.1197E+02  -1.14578   2.86445
    3145.00   4.497621     0.1186E+02  -1.14972   2.87429
    3155.00   4.499000     0.1174E+02  -1.15411   2.88527
    3165.00   4.500374     0.1163E+02  -1.15833   2.89583
    3175.00   4.501744     0.1154E+02  -1.16144   2.90360
    3185.00   4.503109     0.1144E+02  -1.16543   2.91357
    3195.00   4.504471     0.1135E+02  -1.16897   2.92242
    3210.00   4.506505     0.1118E+02  -1.17533   2.93833
    3230.00   4.509202     0.1097E+02  -1.18369   2.95922
    3250.00   4.511883     0.1076E+02  -1.19187   2.97968
    3270.00   4.514548     0.1055E+02  -1.20047   3.00118
    3290.00   4.517196     0.1033E+02  -1.20952   3.02381
    3310.00   4.519828     0.1014E+02  -1.21762   3.04404
    3330.00   4.522444     0.9937E+01  -1.22658   3.06645
    3350.00   4.525045     0.9757E+01  -1.23451   3.08627
    3370.00   4.527630     0.9556E+01  -1.24352   3.10881
    3390.00   4.530200     0.9356E+01  -1.25275   3.13187
    3410.00   4.532754     0.9158E+01  -1.26200   3.15500
    3430.00   4.535294     0.8993E+01  -1.26991   3.17478
    3450.00   4.537819     0.8816E+01  -1.27853   3.19633
    3470.00   4.540329     0.8634E+01  -1.28762   3.21905
    3490.00   4.542826     0.8462E+01  -1.29635   3.24086
    3510.00   4.545307     0.8297E+01  -1.30489   3.26222
    3530.00   4.547775     0.8119E+01  -1.31433   3.28583
    3550.00   4.550228     0.7965E+01  -1.32262   3.30655
    3570.00   4.552669     0.7803E+01  -1.33153   3.32882
    3590.00   4.555095     0.7650E+01  -1.34013   3.35033
    3610.00   4.557508     0.7510E+01  -1.34820   3.37049
    3630.00   4.559907     0.7359E+01  -1.35699   3.39247
    3650.00   4.562293     0.7202E+01  -1.36635   3.41586
    3670.00   4.564666     0.7057E+01  -1.37519   3.43797
    3690.00   4.567026     0.6901E+01  -1.38489   3.46222
    3710.00   4.569374     0.6760E+01  -1.39386   3.48466
    3730.00   4.571709     0.6647E+01  -1.40120   3.50300
    3750.00   4.574031     0.6494E+01  -1.41129   3.52823
    3770.00   4.576342     0.6392E+01  -1.41816   3.54541
    3790.00   4.578639     0.6265E+01  -1.42688   3.56720
    3810.00   4.580925     0.6150E+01  -1.43493   3.58733
    3830.00   4.583199     0.6040E+01  -1.44278   3.60696
    3850.00   4.585461     0.5927E+01  -1.45099   3.62748
    3870.00   4.587711     0.5799E+01  -1.46044   3.65110
    3890.00   4.589950     0.5695E+01  -1.46830   3.67074
    3910.00   4.592176     0.5593E+01  -1.47619   3.69048
    3930.00   4.594393     0.5487E+01  -1.48445   3.71114
    3950.00   4.596597     0.5369E+01  -1.49390   3.73474
    3970.00   4.598790     0.5274E+01  -1.50166   3.75414
    3990.00   4.600973     0.5159E+01  -1.51128   3.77821
    4010.00   4.603145     0.5074E+01  -1.51843   3.79607
    4030.00   4.605305     0.4989E+01  -1.52579   3.81447
    4050.00   4.607455     0.4889E+01  -1.53463   3.83658
    4070.00   4.609594     0.4804E+01  -1.54221   3.85552
    4090.00   4.611723     0.4718E+01  -1.55010   3.87525
    4110.00   4.613842     0.4637E+01  -1.55756   3.89390
    4130.00   4.615950     0.4561E+01  -1.56476   3.91191
    4150.00   4.618048     0.4479E+01  -1.57267   3.93167
    4170.00   4.620136     0.4402E+01  -1.58015   3.95039
    4190.00   4.622214     0.4323E+01  -1.58800   3.96999
    4210.00   4.624282     0.4244E+01  -1.59599   3.98998
    4230.00   4.626340     0.4188E+01  -1.60182   4.00454
    4250.00   4.628389     0.4110E+01  -1.60998   4.02496
    4270.00   4.630428     0.4047E+01  -1.61666   4.04164
    4290.00   4.632457     0.3877E+01  -1.63532   4.08829
    4310.00   4.634478     0.3702E+01  -1.65535   4.13838
    4330.00   4.636488     0.3684E+01  -1.65751   4.14379
    4350.00   4.638489     0.3540E+01  -1.67477   4.18692
    4370.00   4.640481     0.3450E+01  -1.68596   4.21489
    4390.00   4.642465     0.3381E+01  -1.69478   4.23695
    4410.00   4.644439     0.3263E+01  -1.71017   4.27543
    4430.00   4.646404     0.3214E+01  -1.71677   4.29193
    4450.00   4.648360     0.3157E+01  -1.72450   4.31125
    4470.00   4.650308     0.3059E+01  -1.73817   4.34542
    4490.00   4.652246     0.3046E+01  -1.74008   4.35020
    4510.00   4.654177     0.2975E+01  -1.75029   4.37573
    4530.00   4.656098     0.2905E+01  -1.76065   4.40163
    4550.00   4.658011     0.2884E+01  -1.76377   4.40942
    4570.00   4.659916     0.2847E+01  -1.76936   4.42340
    4590.00   4.661813     0.2768E+01  -1.78172   4.45431
    4610.00   4.663701     0.2762E+01  -1.78266   4.45665
    4630.00   4.665581     0.2710E+01  -1.79079   4.47697
    4650.00   4.667453     0.2680E+01  -1.79567   4.48916
    4670.00   4.669317     0.2658E+01  -1.79919   4.49798
    4690.00   4.671173     0.2610E+01  -1.80717   4.51794
    4710.00   4.673021     0.2567E+01  -1.81439   4.53597
    4730.00   4.674861     0.2561E+01  -1.81545   4.53862
    4750.00   4.676694     0.2508E+01  -1.82453   4.56133
    4770.00   4.678518     0.2474E+01  -1.83035   4.57588
    4790.00   4.680336     0.2448E+01  -1.83492   4.58730
    4810.00   4.682145     0.2394E+01  -1.84470   4.61176
    4830.00   4.683947     0.2391E+01  -1.84518   4.61296
    4850.00   4.685741     0.2349E+01  -1.85285   4.63212
    4870.00   4.687529     0.2307E+01  -1.86080   4.65201
    4890.00   4.689309     0.2275E+01  -1.86675   4.66688
    4910.00   4.691082     0.2247E+01  -1.87221   4.68053
    4930.00   4.692847     0.2213E+01  -1.87891   4.69727
    4950.00   4.694605     0.2177E+01  -1.88597   4.71493
    4970.00   4.696356     0.2158E+01  -1.88974   4.72436
    4990.00   4.698101     0.2126E+01  -1.89623   4.74057
    5010.00   4.699838     0.2100E+01  -1.90152   4.75381
    5030.00   4.701568     0.2073E+01  -1.90730   4.76825
    5050.00   4.703291     0.2032E+01  -1.91582   4.78956
    5070.00   4.705008     0.2014E+01  -1.91981   4.79952
    5090.00   4.706717     0.1988E+01  -1.92540   4.81351
    5110.00   4.708421     0.1954E+01  -1.93278   4.83195
    5130.00   4.710117     0.1939E+01  -1.93630   4.84075
    5150.00   4.711807     0.1906E+01  -1.94367   4.85918
    5170.00   4.713490     0.1894E+01  -1.94645   4.86613
    5190.00   4.715167     0.1861E+01  -1.95396   4.88490
    5210.00   4.716838     0.1841E+01  -1.95883   4.89708
    5230.00   4.718502     0.1811E+01  -1.96598   4.91495
    5250.00   4.720160     0.1794E+01  -1.96995   4.92488
    5270.00   4.721810     0.1782E+01  -1.97296   4.93240
    5290.00   4.723455     0.1745E+01  -1.98198   4.95495
    5310.00   4.725095     0.1723E+01  -1.98756   4.96889
    5330.00   4.726727     0.1706E+01  -1.99178   4.97944
    5350.00   4.728354     0.1686E+01  -1.99708   4.99270
    5370.00   4.729974     0.1666E+01  -2.00209   5.00521
    5390.00   4.731589     0.1647E+01  -2.00717   5.01792
    5410.00   4.733197     0.1627E+01  -2.01244   5.03111
    5430.00   4.734800     0.1599E+01  -2.01987   5.04969
    5450.00   4.736397     0.1589E+01  -2.02275   5.05686
    5470.00   4.737988     0.1564E+01  -2.02956   5.07390
    5490.00   4.739573     0.1547E+01  -2.03430   5.08574
    5510.00   4.741152     0.1527E+01  -2.04003   5.10008
    5530.00   4.742725     0.1524E+01  -2.04083   5.10207
    5550.00   4.744293     0.1489E+01  -2.05090   5.12726
    5570.00   4.745855     0.1482E+01  -2.05296   5.13239
    5590.00   4.747412     0.1459E+01  -2.05986   5.14965
    5610.00   4.748963     0.1446E+01  -2.06368   5.15920
    5630.00   4.750508     0.1422E+01  -2.07099   5.17747
    5650.00   4.752048     0.1412E+01  -2.07399   5.18497
    5670.00   4.753583     0.1395E+01  -2.07929   5.19822
    5690.00   4.755112     0.1372E+01  -2.08646   5.21615
    5710.00   4.756636     0.1364E+01  -2.08913   5.22282
    5730.00   4.758155     0.1346E+01  -2.09461   5.23653
    5750.00   4.759668     0.1330E+01  -2.09980   5.24951
    5770.00   4.761176     0.1313E+01  -2.10548   5.26370
    5790.00   4.762679     0.1302E+01  -2.10913   5.27282
    5810.00   4.764176     0.1283E+01  -2.11555   5.28888
    5830.00   4.765669     0.1269E+01  -2.12032   5.30080
    5850.00   4.767156     0.1255E+01  -2.12525   5.31313
    5870.00   4.768638     0.1236E+01  -2.13165   5.32913
    5890.00   4.770115     0.1223E+01  -2.13639   5.34097
    5910.00   4.771587     0.1210E+01  -2.14111   5.35278
    5930.00   4.773055     0.1197E+01  -2.14585   5.36462
    5950.00   4.774517     0.1180E+01  -2.15176   5.37939
    5970.00   4.775974     0.1170E+01  -2.15579   5.38948
    5990.00   4.777427     0.1156E+01  -2.16091   5.40227
    6010.00   4.778874     0.1142E+01  -2.16599   5.41499
    6030.00   4.780317     0.1129E+01  -2.17113   5.42783
    6050.00   4.781755     0.1114E+01  -2.17712   5.44281
    6070.00   4.783189     0.1101E+01  -2.18202   5.45505
    6090.00   4.784617     0.1088E+01  -2.18715   5.46788
    6110.00   4.786041     0.1074E+01  -2.19264   5.48160
    6130.00   4.787460     0.1064E+01  -2.19700   5.49249
    6150.00   4.788875     0.1052E+01  -2.20172   5.50431
    6170.00   4.790285     0.1041E+01  -2.20621   5.51552
    6190.00   4.791691     0.1029E+01  -2.21137   5.52844
    6210.00   4.793092     0.1018E+01  -2.21602   5.54006
    6230.00   4.794488     0.1005E+01  -2.22170   5.55425
    6250.00   4.795880     0.9921E+00  -2.22727   5.56817
    6270.00   4.797267     0.9808E+00  -2.23223   5.58057
    6290.00   4.798651     0.9704E+00  -2.23685   5.59213
    6310.00   4.800029     0.9589E+00  -2.24207   5.60516
    6330.00   4.801404     0.9500E+00  -2.24610   5.61525
    6350.00   4.802773     0.9381E+00  -2.25155   5.62889
    6370.00   4.804139     0.9293E+00  -2.25567   5.63916
    6390.00   4.805501     0.9174E+00  -2.26126   5.65316
    6420.00   4.807535     0.9022E+00  -2.26850   5.67125
    6460.00   4.810232     0.8815E+00  -2.27859   5.69647
    6500.00   4.812913     0.8621E+00  -2.28826   5.72065
    6540.00   4.815578     0.8430E+00  -2.29801   5.74504
    6580.00   4.818226     0.8249E+00  -2.30739   5.76848
    6620.00   4.820858     0.8064E+00  -2.31726   5.79316
    6660.00   4.823474     0.7889E+00  -2.32679   5.81699
    6700.00   4.826075     0.7719E+00  -2.33627   5.84068
    6740.00   4.828660     0.7547E+00  -2.34602   5.86505
    6780.00   4.831230     0.7385E+00  -2.35544   5.88861
    6820.00   4.833784     0.7225E+00  -2.36496   5.91240
    6860.00   4.836324     0.7073E+00  -2.37418   5.93546
    6900.00   4.838849     0.6921E+00  -2.38368   5.95919
    6940.00   4.841359     0.6774E+00  -2.39297   5.98243
    6980.00   4.843855     0.6631E+00  -2.40221   6.00552
    7020.00   4.846337     0.6489E+00  -2.41163   6.02908
    7060.00   4.848804     0.6356E+00  -2.42066   6.05164
    7100.00   4.851258     0.6222E+00  -2.42985   6.07463
    7140.00   4.853698     0.6094E+00  -2.43891   6.09727
    7180.00   4.856124     0.5967E+00  -2.44805   6.12012
    7220.00   4.858537     0.5845E+00  -2.45704   6.14260
    7260.00   4.860937     0.5724E+00  -2.46610   6.16524
    7300.00   4.863323     0.5608E+00  -2.47500   6.18749
    7340.00   4.865696     0.5493E+00  -2.48401   6.21002
    7380.00   4.868056     0.5383E+00  -2.49278   6.23195
    7420.00   4.870404     0.5271E+00  -2.50188   6.25471
    7460.00   4.872739     0.5165E+00  -2.51071   6.27679
    7500.00   4.875061     0.5064E+00  -2.51935   6.29838
    7540.00   4.877371     0.4962E+00  -2.52814   6.32036
    7580.00   4.879669     0.4867E+00  -2.53652   6.34129
    7620.00   4.881955     0.4772E+00  -2.54514   6.36285
    7660.00   4.884229     0.4678E+00  -2.55371   6.38428
    7700.00   4.886491     0.4587E+00  -2.56233   6.40582
    7740.00   4.888741     0.4498E+00  -2.57076   6.42690
    7780.00   4.890980     0.4412E+00  -2.57919   6.44798
    7820.00   4.893207     0.4327E+00  -2.58763   6.46908
    7860.00   4.895422     0.4244E+00  -2.59600   6.48999
    7900.00   4.897627     0.4164E+00  -2.60435   6.51086
    7940.00   4.899820     0.4085E+00  -2.61265   6.53162
    7980.00   4.902003     0.4008E+00  -2.62088   6.55221
    8020.00   4.904174     0.3931E+00  -2.62926   6.57315
    8060.00   4.906335     0.3858E+00  -2.63744   6.59360
    8100.00   4.908485     0.3787E+00  -2.64548   6.61371
    8140.00   4.910625     0.3717E+00  -2.65368   6.63419
    8180.00   4.912753     0.3649E+00  -2.66165   6.65412
    8220.00   4.914872     0.3582E+00  -2.66966   6.67416
    8260.00   4.916980     0.3517E+00  -2.67769   6.69423
    8300.00   4.919078     0.3453E+00  -2.68565   6.71411
    8340.00   4.921166     0.3389E+00  -2.69370   6.73424
    8380.00   4.923244     0.3328E+00  -2.70160   6.75400
    8420.00   4.925312     0.3270E+00  -2.70933   6.77332
    8460.00   4.927370     0.3211E+00  -2.71720   6.79300
    8500.00   4.929419     0.3154E+00  -2.72497   6.81242
    8540.00   4.931458     0.3098E+00  -2.73270   6.83174
    8580.00   4.933487     0.3044E+00  -2.74039   6.85097
    8620.00   4.935507     0.2991E+00  -2.74806   6.87015
    8660.00   4.937518     0.2939E+00  -2.75567   6.88918
    8700.00   4.939519     0.2887E+00  -2.76330   6.90825
    8740.00   4.941511     0.2837E+00  -2.77088   6.92721
    8780.00   4.943495     0.2788E+00  -2.77845   6.94613
    8820.00   4.945469     0.2740E+00  -2.78604   6.96511
    8860.00   4.947433     0.2693E+00  -2.79350   6.98376
    8900.00   4.949390     0.2647E+00  -2.80100   7.00249
    8940.00   4.951338     0.2603E+00  -2.80834   7.02085
    8980.00   4.953277     0.2558E+00  -2.81588   7.03970
    9020.00   4.955207     0.2516E+00  -2.82309   7.05772
    9060.00   4.957129     0.2474E+00  -2.83037   7.07593
    9100.00   4.959042     0.2432E+00  -2.83792   7.09480
    9140.00   4.960946     0.2392E+00  -2.84503   7.11257
    9180.00   4.962843     0.2353E+00  -2.85226   7.13064
    9220.00   4.964731     0.2315E+00  -2.85936   7.14840
    9260.00   4.966611     0.2276E+00  -2.86656   7.16639
    9300.00   4.968483     0.2239E+00  -2.87369   7.18423
    9340.00   4.970347     0.2203E+00  -2.88083   7.20207
    9380.00   4.972203     0.2167E+00  -2.88789   7.21974
    9420.00   4.974051     0.2132E+00  -2.89496   7.23740
    9460.00   4.975891     0.2098E+00  -2.90203   7.25508
    9500.00   4.977724     0.2064E+00  -2.90902   7.27256
    9540.00   4.979548     0.2032E+00  -2.91599   7.28997
    9580.00   4.981365     0.1999E+00  -2.92292   7.30730
    9620.00   4.983175     0.1968E+00  -2.92985   7.32464
    9660.00   4.984977     0.1937E+00  -2.93672   7.34181
    9700.00   4.986772     0.1907E+00  -2.94358   7.35895
    9740.00   4.988559     0.1876E+00  -2.95065   7.37663
    9780.00   4.990339     0.1847E+00  -2.95731   7.39328
    9820.00   4.992111     0.1819E+00  -2.96403   7.41008
    9860.00   4.993877     0.1791E+00  -2.97079   7.42697
    9900.00   4.995635     0.1763E+00  -2.97750   7.44375
    9940.00   4.997386     0.1736E+00  -2.98425   7.46063
    9980.00   4.999130     0.1710E+00  -2.99092   7.47730
   10020.00   5.000868     0.1684E+00  -2.99757   7.49393
   20000.00   5.301030     0.1151E-01  -4.16276  10.40690
   40000.00   5.602060     0.7465E-03  -5.35081  13.37703
   60000.00   5.778151     0.1489E-03  -6.05083  15.12706
   80000.00   5.903090     0.4730E-04  -6.54895  16.37238
  100000.00   6.000000     0.1940E-04  -6.93596  17.33989
  120000.00   6.079181     0.9361E-05  -7.25251  18.13126
  140000.00   6.146128     0.5052E-05  -7.52034  18.80085
  160000.00   6.204120     0.2960E-05  -7.75246  19.38116
