age =   17.0    [Fe/H] =    0.25

wavele(nm) log wave(A)   Hlam       log(Hlam/Hlam(V))  Hlam(mag(V)) 
      90.50   2.956649     0.6853E-14 -16.12407  40.31017
      91.50   2.961421     0.1040E-12 -14.94305  37.35764
      92.50   2.966142     0.4147E-12 -14.34218  35.85545
      93.50   2.970812     0.6043E-12 -14.17868  35.44670
      94.50   2.975432     0.9284E-12 -13.99223  34.98057
      95.50   2.980003     0.1416E-11 -13.80888  34.52219
      96.50   2.984527     0.2276E-11 -13.60286  34.00714
      97.50   2.989005     0.3235E-11 -13.45006  33.62515
      98.50   2.993436     0.4747E-11 -13.28350  33.20874
      99.50   2.997823     0.6785E-11 -13.12842  32.82105
     100.50   3.002166     0.1017E-10 -12.95276  32.38190
     101.50   3.006466     0.1463E-10 -12.79476  31.98690
     102.50   3.010724     0.1859E-10 -12.69060  31.72651
     103.50   3.014940     0.2980E-10 -12.48575  31.21437
     104.50   3.019116     0.4243E-10 -12.33228  30.83069
     105.50   3.023252     0.5544E-10 -12.21609  30.54024
     106.50   3.027350     0.7933E-10 -12.06051  30.15127
     107.50   3.031409     0.1094E-09 -11.92082  29.80206
     108.50   3.035430     0.1503E-09 -11.78300  29.45750
     109.50   3.039414     0.1937E-09 -11.67281  29.18201
     110.50   3.043362     0.2716E-09 -11.52596  28.81490
     111.50   3.047275     0.3717E-09 -11.38981  28.47451
     112.50   3.051152     0.5172E-09 -11.24628  28.11570
     113.50   3.054996     0.7298E-09 -11.09676  27.74191
     114.50   3.058805     0.9774E-09 -10.96988  27.42470
     115.50   3.062582     0.1265E-08 -10.85777  27.14441
     116.50   3.066326     0.1677E-08 -10.73549  26.83873
     117.50   3.070038     0.2218E-08 -10.61391  26.53478
     118.50   3.073718     0.2775E-08 -10.51676  26.29191
     119.50   3.077368     0.3320E-08 -10.43887  26.09718
     120.50   3.080987     0.4090E-08 -10.34825  25.87063
     121.50   3.084576     0.3452E-08 -10.42187  26.05467
     122.50   3.088136     0.6391E-08 -10.15437  25.38593
     123.50   3.091667     0.8986E-08 -10.00640  25.01599
     124.50   3.095169     0.1135E-07  -9.90506  24.76264
     125.50   3.098644     0.1394E-07  -9.81554  24.53886
     126.50   3.102091     0.1704E-07  -9.72844  24.32110
     127.50   3.105510     0.2106E-07  -9.63656  24.09140
     128.50   3.108903     0.2482E-07  -9.56523  23.91309
     129.50   3.112270     0.3057E-07  -9.47470  23.68675
     130.50   3.115611     0.3634E-07  -9.39955  23.49887
     131.50   3.118926     0.4532E-07  -9.30370  23.25925
     132.50   3.122216     0.5244E-07  -9.24025  23.10064
     133.50   3.125481     0.6218E-07  -9.16632  22.91580
     134.50   3.128722     0.7627E-07  -9.07757  22.69394
     135.50   3.131939     0.9354E-07  -8.98897  22.47242
     136.50   3.135133     0.1088E-06  -8.92323  22.30808
     137.50   3.138303     0.1278E-06  -8.85353  22.13383
     138.50   3.141450     0.1499E-06  -8.78417  21.96043
     139.50   3.144574     0.1775E-06  -8.71070  21.77675
     140.50   3.147676     0.2177E-06  -8.62216  21.55541
     141.50   3.150756     0.2589E-06  -8.54675  21.36688
     142.50   3.153815     0.3084E-06  -8.47084  21.17711
     143.50   3.156852     0.3717E-06  -8.38979  20.97448
     144.20   3.158965     0.4413E-06  -8.31523  20.78808
     144.70   3.160469     0.4508E-06  -8.30592  20.76481
     145.50   3.162863     0.5236E-06  -8.24094  20.60236
     146.50   3.165838     0.6447E-06  -8.15059  20.37648
     147.50   3.168792     0.7554E-06  -8.08178  20.20445
     148.50   3.171726     0.8655E-06  -8.02269  20.05672
     149.50   3.174641     0.1067E-05  -7.93177  19.82942
     150.50   3.177536     0.1284E-05  -7.85129  19.62822
     151.20   3.179552     0.1246E-05  -7.86427  19.66068
     151.70   3.180986     0.1436E-05  -7.80279  19.50697
     152.50   3.183270     0.2498E-05  -7.56241  18.90601
     153.50   3.186108     0.3818E-05  -7.37814  18.44535
     154.50   3.188928     0.3464E-05  -7.42031  18.55078
     155.50   3.191730     0.5349E-05  -7.23168  18.07920
     156.50   3.194514     0.5422E-05  -7.22580  18.06450
     157.50   3.197281     0.1147E-04  -6.90038  17.25095
     158.50   3.200029     0.1374E-04  -6.82200  17.05500
     159.50   3.202761     0.1609E-04  -6.75333  16.88333
     160.50   3.205475     0.1707E-04  -6.72778  16.81945
     161.50   3.208173     0.1870E-04  -6.68803  16.72008
     162.50   3.210853     0.2125E-04  -6.63262  16.58155
     163.50   3.213518     0.2721E-04  -6.52520  16.31299
     164.50   3.216166     0.3844E-04  -6.37512  15.93780
     165.50   3.218798     0.2889E-04  -6.49926  16.24816
     166.50   3.221414     0.4726E-04  -6.28547  15.71368
     167.20   3.223236     0.3456E-04  -6.42144  16.05359
     167.70   3.224533     0.1243E-03  -5.86545  14.66362
     168.50   3.226600     0.1408E-03  -5.81121  14.52802
     169.50   3.229170     0.1814E-03  -5.70120  14.25301
     170.50   3.231725     0.1942E-03  -5.67178  14.17944
     171.50   3.234264     0.1897E-03  -5.68190  14.20476
     172.50   3.236789     0.2649E-03  -5.53680  13.84201
     173.50   3.239300     0.3179E-03  -5.45770  13.64425
     174.50   3.241796     0.4515E-03  -5.30529  13.26323
     175.50   3.244277     0.5803E-03  -5.19631  12.99077
     176.50   3.246745     0.5782E-03  -5.19786  12.99466
     177.50   3.249198     0.5971E-03  -5.18389  12.95972
     178.50   3.251638     0.8669E-03  -5.02198  12.55495
     179.50   3.254065     0.9525E-03  -4.98108  12.45271
     180.50   3.256477     0.1167E-02  -4.89287  12.23217
     181.50   3.258877     0.1052E-02  -4.93796  12.34490
     182.50   3.261263     0.1455E-02  -4.79719  11.99298
     183.50   3.263636     0.1470E-02  -4.79264  11.98160
     184.50   3.265996     0.1198E-02  -4.88154  12.20385
     185.50   3.268344     0.1578E-02  -4.76177  11.90443
     186.50   3.270679     0.1961E-02  -4.66746  11.66864
     187.50   3.273001     0.2111E-02  -4.63550  11.58876
     188.50   3.275311     0.2332E-02  -4.59226  11.48065
     189.50   3.277609     0.3146E-02  -4.46222  11.15556
     190.50   3.279895     0.3035E-02  -4.47773  11.19432
     191.50   3.282169     0.3598E-02  -4.40395  11.00986
     192.50   3.284431     0.3544E-02  -4.41045  11.02614
     193.50   3.286681     0.2342E-02  -4.59042  11.47605
     194.50   3.288920     0.4632E-02  -4.29423  10.73557
     195.50   3.291147     0.5213E-02  -4.24284  10.60711
     196.70   3.293804     0.6591E-02  -4.14103  10.35257
     197.60   3.295787     0.6751E-02  -4.13056  10.32639
     198.40   3.297542     0.7588E-02  -4.07983  10.19957
     199.50   3.299943     0.7609E-02  -4.07862  10.19656
     200.50   3.302114     0.7664E-02  -4.07552  10.18879
     201.50   3.304275     0.8650E-02  -4.02294  10.05735
     202.50   3.306425     0.7017E-02  -4.11378  10.28446
     203.50   3.308564     0.9718E-02  -3.97239   9.93097
     204.50   3.310693     0.1110E-01  -3.91477   9.78693
     205.50   3.312812     0.1208E-01  -3.87789   9.69473
     206.50   3.314920     0.1209E-01  -3.87750   9.69376
     207.40   3.316809     0.1261E-01  -3.85928   9.64819
     207.80   3.317646     0.2576E-01  -3.54901   8.87253
     208.50   3.319106     0.3268E-01  -3.44561   8.61402
     209.50   3.321184     0.3223E-01  -3.45169   8.62922
     210.50   3.323252     0.3311E-01  -3.43993   8.59983
     211.50   3.325310     0.3901E-01  -3.36876   8.42189
     212.50   3.327359     0.3613E-01  -3.40214   8.50536
     213.50   3.329398     0.4133E-01  -3.34370   8.35924
     214.50   3.331427     0.4634E-01  -3.29400   8.23501
     215.50   3.333447     0.4370E-01  -3.31949   8.29872
     216.50   3.335458     0.4225E-01  -3.33417   8.33543
     217.50   3.337459     0.4348E-01  -3.32170   8.30424
     218.50   3.339452     0.5121E-01  -3.25060   8.12649
     219.50   3.341434     0.5701E-01  -3.20401   8.01004
     220.50   3.343409     0.5808E-01  -3.19591   7.98979
     221.50   3.345374     0.5074E-01  -3.25456   8.13640
     222.50   3.347330     0.6055E-01  -3.17787   7.94466
     223.50   3.349277     0.8522E-01  -3.02941   7.57352
     224.50   3.351216     0.8703E-01  -3.02029   7.55073
     225.50   3.353147     0.7659E-01  -3.07577   7.68944
     226.50   3.355068     0.6005E-01  -3.18147   7.95369
     227.50   3.356982     0.7144E-01  -3.10601   7.76503
     228.50   3.358886     0.1013E+00  -2.95434   7.38586
     229.50   3.360783     0.9236E-01  -2.99447   7.48617
     230.50   3.362671     0.8884E-01  -3.01133   7.52833
     231.50   3.364551     0.1019E+00  -2.95182   7.37955
     232.50   3.366423     0.1020E+00  -2.95143   7.37858
     233.50   3.368287     0.1147E+00  -2.90031   7.25077
     234.50   3.370143     0.7884E-01  -3.06321   7.65802
     235.50   3.371991     0.1113E+00  -2.91334   7.28334
     236.50   3.373831     0.9133E-01  -2.99932   7.49830
     237.50   3.375664     0.1079E+00  -2.92679   7.31698
     238.50   3.377488     0.8990E-01  -3.00619   7.51547
     239.50   3.379306     0.1045E+00  -2.94074   7.35185
     240.50   3.381115     0.1237E+00  -2.86745   7.16862
     241.50   3.382917     0.1071E+00  -2.93002   7.32504
     242.50   3.384712     0.1624E+00  -2.74935   6.87339
     243.50   3.386499     0.1825E+00  -2.69870   6.74674
     244.50   3.388279     0.2260E+00  -2.60582   6.51455
     245.50   3.390052     0.2466E+00  -2.56790   6.41976
     246.50   3.391817     0.1876E+00  -2.68679   6.71696
     247.50   3.393575     0.1824E+00  -2.69886   6.74716
     248.50   3.395326     0.7636E-01  -3.07709   7.69272
     249.50   3.397071     0.1146E+00  -2.90063   7.25159
     250.50   3.398808     0.1969E+00  -2.66573   6.66431
     251.30   3.400192     0.1065E+00  -2.93271   7.33178
     251.80   3.401056     0.7698E-01  -3.07359   7.68396
     252.50   3.402261     0.8824E-01  -3.01428   7.53570
     253.50   3.403978     0.2065E+00  -2.64507   6.61268
     254.50   3.405688     0.2170E+00  -2.62356   6.55889
     255.50   3.407391     0.4921E+00  -2.26786   5.66966
     256.50   3.409087     0.3396E+00  -2.42898   6.07244
     257.50   3.410777     0.5013E+00  -2.25983   5.64958
     258.50   3.412461     0.4603E+00  -2.29693   5.74232
     259.50   3.414137     0.4538E+00  -2.30305   5.75762
     260.50   3.415808     0.4479E+00  -2.30875   5.77188
     261.50   3.417472     0.4009E+00  -2.35692   5.89229
     262.50   3.419129     0.5632E+00  -2.20929   5.52321
     263.50   3.420781     0.1129E+01  -1.90717   4.76793
     264.50   3.422426     0.1341E+01  -1.83267   4.58168
     265.50   3.424065     0.2500E+01  -1.56205   3.90511
     266.50   3.425697     0.1309E+01  -1.84304   4.60759
     267.50   3.427324     0.1394E+01  -1.81564   4.53911
     268.50   3.428944     0.1882E+01  -1.68542   4.21355
     269.50   3.430559     0.1079E+01  -1.92683   4.81708
     270.50   3.432167     0.1653E+01  -1.74177   4.35443
     271.50   3.433770     0.1094E+01  -1.92088   4.80220
     272.50   3.435366     0.6447E+00  -2.15062   5.37655
     273.50   3.436957     0.9398E+00  -1.98690   4.96725
     274.50   3.438542     0.7114E+00  -2.10782   5.26954
     275.50   3.440122     0.9707E+00  -1.97285   4.93212
     276.50   3.441695     0.1339E+01  -1.83312   4.58280
     277.50   3.443263     0.1464E+01  -1.79451   4.48629
     278.50   3.444825     0.8818E+00  -2.01459   5.03649
     279.50   3.446382     0.4526E+00  -2.30428   5.76071
     280.50   3.447933     0.5476E+00  -2.22147   5.55369
     281.50   3.449478     0.1297E+01  -1.84691   4.61727
     282.50   3.451018     0.1673E+01  -1.73644   4.34110
     283.50   3.452553     0.1327E+01  -1.83719   4.59298
     284.50   3.454082     0.7564E+00  -2.08121   5.20303
     285.50   3.455606     0.3599E+00  -2.40371   6.00929
     286.50   3.457125     0.1103E+01  -1.91738   4.79344
     287.50   3.458638     0.2030E+01  -1.65237   4.13092
     288.50   3.460146     0.2247E+01  -1.60832   4.02079
     289.50   3.461648     0.3419E+01  -1.42608   3.56521
     291.00   3.463893     0.5699E+01  -1.20416   3.01041
     293.00   3.466868     0.5065E+01  -1.25538   3.13844
     295.00   3.469822     0.4638E+01  -1.29367   3.23417
     297.00   3.472756     0.4803E+01  -1.27844   3.19610
     299.00   3.475671     0.5063E+01  -1.25558   3.13894
     301.00   3.478566     0.4771E+01  -1.28138   3.20345
     303.00   3.481443     0.5837E+01  -1.19379   2.98447
     305.00   3.484300     0.6026E+01  -1.17995   2.94987
     307.00   3.487138     0.7136E+01  -1.10651   2.76628
     309.00   3.489959     0.6241E+01  -1.16471   2.91177
     311.00   3.492760     0.8822E+01  -1.01438   2.53595
     313.00   3.495544     0.7516E+01  -1.08395   2.70988
     315.00   3.498311     0.8281E+01  -1.04188   2.60471
     317.00   3.501059     0.9857E+01  -0.96620   2.41550
     319.00   3.503791     0.7895E+01  -1.06260   2.65649
     321.00   3.506505     0.8688E+01  -1.02101   2.55253
     323.00   3.509202     0.7359E+01  -1.09311   2.73278
     325.00   3.511883     0.1190E+02  -0.88438   2.21094
     327.00   3.514548     0.1450E+02  -0.79858   1.99645
     329.00   3.517196     0.1463E+02  -0.79483   1.98708
     331.00   3.519828     0.1273E+02  -0.85498   2.13745
     333.00   3.522444     0.1356E+02  -0.82770   2.06925
     335.00   3.525045     0.1298E+02  -0.84684   2.11709
     337.00   3.527630     0.8492E+01  -1.03096   2.57741
     339.00   3.530200     0.1018E+02  -0.95200   2.38000
     341.00   3.532754     0.1073E+02  -0.92951   2.32377
     343.00   3.535294     0.1178E+02  -0.88869   2.22172
     345.00   3.537819     0.1308E+02  -0.84332   2.10830
     347.00   3.540329     0.1395E+02  -0.81535   2.03838
     349.00   3.542825     0.1662E+02  -0.73937   1.84843
     351.00   3.545307     0.1820E+02  -0.69994   1.74985
     353.00   3.547775     0.1529E+02  -0.77553   1.93883
     355.00   3.550228     0.1756E+02  -0.71539   1.78848
     357.00   3.552668     0.1095E+02  -0.92065   2.30163
     359.00   3.555094     0.1211E+02  -0.87681   2.19202
     361.00   3.557507     0.1699E+02  -0.72964   1.82411
     363.00   3.559907     0.1856E+02  -0.69135   1.72838
     364.00   3.561101     0.1891E+02  -0.68316   1.70789
     365.00   3.562293     0.2107E+02  -0.63619   1.59047
     367.00   3.564666     0.2405E+02  -0.57883   1.44708
     369.00   3.567026     0.1983E+02  -0.66254   1.65636
     371.00   3.569374     0.1997E+02  -0.65957   1.64893
     373.00   3.571709     0.1017E+02  -0.95261   2.38154
     375.00   3.574031     0.1218E+02  -0.87444   2.18611
     377.00   3.576341     0.1925E+02  -0.67542   1.68856
     379.00   3.578639     0.1989E+02  -0.66132   1.65330
     381.00   3.580925     0.1702E+02  -0.72909   1.82272
     383.00   3.583199     0.8057E+01  -1.05377   2.63442
     385.00   3.585461     0.1159E+02  -0.89575   2.23937
     387.00   3.587711     0.1168E+02  -0.89253   2.23132
     389.00   3.589950     0.1787E+02  -0.70793   1.76982
     391.00   3.592177     0.2373E+02  -0.58472   1.46179
     393.00   3.594393     0.1018E+02  -0.95216   2.38040
     395.00   3.596597     0.1989E+02  -0.66137   1.65343
     397.00   3.598790     0.1350E+02  -0.82960   2.07399
     399.00   3.600973     0.3530E+02  -0.41212   1.03030
     401.00   3.603144     0.4069E+02  -0.35051   0.87627
     403.00   3.605305     0.3928E+02  -0.36579   0.91447
     405.00   3.607455     0.3725E+02  -0.38884   0.97211
     407.00   3.609594     0.3374E+02  -0.43185   1.07963
     409.00   3.611723     0.4737E+02  -0.28441   0.71102
     411.00   3.613842     0.4355E+02  -0.32101   0.80252
     413.00   3.615950     0.4039E+02  -0.35364   0.88410
     415.00   3.618048     0.3871E+02  -0.37208   0.93020
     417.00   3.620136     0.4002E+02  -0.35766   0.89415
     419.00   3.622214     0.3980E+02  -0.36006   0.90015
     421.00   3.624282     0.4012E+02  -0.35655   0.89138
     423.00   3.626340     0.3515E+02  -0.41406   1.03515
     425.00   3.628389     0.4217E+02  -0.33496   0.83741
     427.00   3.630428     0.3947E+02  -0.36369   0.90923
     429.00   3.632457     0.3725E+02  -0.38881   0.97202
     431.00   3.634477     0.3337E+02  -0.43666   1.09164
     433.00   3.636488     0.5240E+02  -0.24062   0.60154
     435.00   3.638489     0.5452E+02  -0.22339   0.55847
     437.00   3.640481     0.5915E+02  -0.18799   0.46998
     439.00   3.642465     0.4964E+02  -0.26409   0.66022
     441.00   3.644439     0.5257E+02  -0.23924   0.59810
     443.00   3.646404     0.5773E+02  -0.19854   0.49635
     445.00   3.648360     0.5944E+02  -0.18584   0.46461
     447.00   3.650307     0.6556E+02  -0.14330   0.35826
     449.00   3.652246     0.6853E+02  -0.12407   0.31016
     451.00   3.654176     0.8201E+02  -0.04610   0.11526
     453.00   3.656098     0.6784E+02  -0.12848   0.32121
     455.00   3.658011     0.7302E+02  -0.09653   0.24134
     457.00   3.659916     0.8134E+02  -0.04967   0.12418
     459.00   3.661813     0.7568E+02  -0.08097   0.20242
     461.00   3.663701     0.7828E+02  -0.06629   0.16573
     463.00   3.665581     0.7538E+02  -0.08268   0.20671
     465.00   3.667453     0.7661E+02  -0.07569   0.18921
     467.00   3.669317     0.8205E+02  -0.04589   0.11473
     469.00   3.671173     0.8015E+02  -0.05607   0.14017
     471.00   3.673021     0.7743E+02  -0.07103   0.17758
     473.00   3.674861     0.8022E+02  -0.05567   0.13918
     475.00   3.676694     0.8258E+02  -0.04307   0.10767
     477.00   3.678518     0.7933E+02  -0.06053   0.15132
     479.00   3.680336     0.8108E+02  -0.05102   0.12755
     481.00   3.682145     0.8218E+02  -0.04517   0.11293
     483.00   3.683947     0.8644E+02  -0.02326   0.05815
     485.00   3.685742     0.8251E+02  -0.04346   0.10865
     487.00   3.687529     0.7592E+02  -0.07958   0.19896
     489.00   3.689309     0.8414E+02  -0.03496   0.08739
     491.00   3.691082     0.8480E+02  -0.03155   0.07888
     493.00   3.692847     0.8257E+02  -0.04312   0.10779
     495.00   3.694605     0.8577E+02  -0.02664   0.06659
     497.00   3.696356     0.8070E+02  -0.05307   0.13268
     499.00   3.698101     0.7418E+02  -0.08965   0.22412
     501.00   3.699838     0.6817E+02  -0.12635   0.31587
     503.00   3.701568     0.7453E+02  -0.08761   0.21903
     505.00   3.703291     0.7412E+02  -0.09001   0.22503
     507.00   3.705008     0.7772E+02  -0.06944   0.17359
     509.00   3.706718     0.7239E+02  -0.10028   0.25070
     511.00   3.708421     0.7515E+02  -0.08404   0.21011
     513.00   3.710117     0.7196E+02  -0.10288   0.25720
     515.00   3.711807     0.6891E+02  -0.12169   0.30421
     517.00   3.713490     0.5849E+02  -0.19289   0.48223
     519.00   3.715167     0.6261E+02  -0.16332   0.40831
     521.00   3.716838     0.7153E+02  -0.10546   0.26364
     523.00   3.718502     0.8351E+02  -0.03822   0.09555
     525.00   3.720159     0.8949E+02  -0.00820   0.02049
     527.00   3.721811     0.7521E+02  -0.08366   0.20914
     529.00   3.723456     0.9257E+02   0.00651  -0.01627
     531.00   3.725095     0.1011E+03   0.04461  -0.11151
     533.00   3.726727     0.8444E+02  -0.03339   0.08348
     535.00   3.728354     0.9638E+02   0.02402  -0.06006
     537.00   3.729974     0.9509E+02   0.01819  -0.04548
     539.00   3.731589     0.9242E+02   0.00579  -0.01448
     541.00   3.733197     0.9150E+02   0.00146  -0.00364
     543.00   3.734800     0.9304E+02   0.00874  -0.02184
     545.00   3.736397     0.9392E+02   0.01281  -0.03202
     547.00   3.737987     0.9189E+02   0.00332  -0.00829
     549.00   3.739572     0.9302E+02   0.00860  -0.02150
     551.00   3.741152     0.9119E+02   0.00000   0.00000
     553.00   3.742725     0.9712E+02   0.02736  -0.06840
     555.00   3.744293     0.9964E+02   0.03847  -0.09617
     557.00   3.745855     0.9764E+02   0.02969  -0.07423
     559.00   3.747412     0.9387E+02   0.01258  -0.03146
     561.00   3.748963     0.9747E+02   0.02894  -0.07234
     563.00   3.750508     0.9715E+02   0.02748  -0.06869
     565.00   3.752048     0.1002E+03   0.04077  -0.10192
     567.00   3.753583     0.9768E+02   0.02985  -0.07461
     569.00   3.755112     0.1023E+03   0.04995  -0.12487
     571.00   3.756636     0.9816E+02   0.03197  -0.07992
     573.00   3.758155     0.1094E+03   0.07924  -0.19809
     575.00   3.759668     0.1044E+03   0.05873  -0.14683
     577.00   3.761176     0.1057E+03   0.06411  -0.16026
     579.00   3.762679     0.1005E+03   0.04233  -0.10583
     581.00   3.764176     0.1061E+03   0.06593  -0.16483
     583.00   3.765669     0.1103E+03   0.08277  -0.20692
     585.00   3.767156     0.1049E+03   0.06085  -0.15214
     587.00   3.768638     0.1037E+03   0.05590  -0.13975
     589.00   3.770115     0.8351E+02  -0.03819   0.09548
     591.00   3.771587     0.1009E+03   0.04380  -0.10950
     593.00   3.773055     0.1033E+03   0.05417  -0.13542
     595.00   3.774517     0.1038E+03   0.05613  -0.14033
     597.00   3.775974     0.1068E+03   0.06856  -0.17141
     599.00   3.777427     0.1049E+03   0.06090  -0.15225
     601.00   3.778874     0.1038E+03   0.05635  -0.14089
     603.00   3.780317     0.1084E+03   0.07491  -0.18728
     605.00   3.781755     0.1111E+03   0.08577  -0.21442
     607.00   3.783189     0.1111E+03   0.08583  -0.21456
     609.00   3.784617     0.1064E+03   0.06679  -0.16697
     611.00   3.786041     0.1072E+03   0.07019  -0.17548
     613.00   3.787461     0.9972E+02   0.03883  -0.09709
     615.00   3.788875     0.1035E+03   0.05485  -0.13711
     617.00   3.790285     0.9324E+02   0.00964  -0.02411
     619.00   3.791691     0.1015E+03   0.04641  -0.11604
     621.00   3.793092     0.9958E+02   0.03824  -0.09560
     623.00   3.794488     0.9549E+02   0.02002  -0.05004
     625.00   3.795880     0.9278E+02   0.00749  -0.01873
     627.00   3.797267     0.9838E+02   0.03296  -0.08241
     629.00   3.798651     0.1021E+03   0.04928  -0.12321
     631.00   3.800029     0.9961E+02   0.03836  -0.09589
     633.00   3.801404     0.1018E+03   0.04782  -0.11956
     635.00   3.802774     0.1019E+03   0.04819  -0.12047
     637.00   3.804139     0.1019E+03   0.04827  -0.12067
     639.00   3.805501     0.1057E+03   0.06403  -0.16007
     641.00   3.806858     0.1034E+03   0.05460  -0.13649
     643.00   3.808211     0.1046E+03   0.05960  -0.14901
     645.00   3.809560     0.1040E+03   0.05689  -0.14224
     647.00   3.810904     0.1039E+03   0.05664  -0.14160
     649.00   3.812245     0.1020E+03   0.04873  -0.12182
     651.00   3.813581     0.1073E+03   0.07058  -0.17646
     653.00   3.814913     0.1077E+03   0.07218  -0.18044
     655.00   3.816241     0.1058E+03   0.06456  -0.16141
     657.00   3.817565     0.1025E+03   0.05061  -0.12653
     659.00   3.818885     0.1054E+03   0.06299  -0.15749
     661.00   3.820201     0.1062E+03   0.06625  -0.16561
     663.00   3.821513     0.1041E+03   0.05767  -0.14417
     665.00   3.822822     0.1035E+03   0.05482  -0.13704
     667.00   3.824126     0.9955E+02   0.03809  -0.09522
     669.00   3.825426     0.9976E+02   0.03902  -0.09754
     671.00   3.826723     0.9403E+02   0.01330  -0.03326
     673.00   3.828015     0.9694E+02   0.02653  -0.06632
     675.00   3.829304     0.9482E+02   0.01696  -0.04241
     677.00   3.830589     0.9545E+02   0.01984  -0.04961
     679.00   3.831870     0.9391E+02   0.01278  -0.03194
     681.00   3.833147     0.9535E+02   0.01937  -0.04843
     683.00   3.834421     0.9747E+02   0.02891  -0.07227
     685.00   3.835690     0.9487E+02   0.01719  -0.04298
     687.00   3.836957     0.9733E+02   0.02828  -0.07069
     689.00   3.838219     0.1002E+03   0.04071  -0.10178
     691.00   3.839478     0.1015E+03   0.04646  -0.11616
     693.00   3.840733     0.1011E+03   0.04491  -0.11228
     695.00   3.841985     0.1025E+03   0.05065  -0.12662
     697.00   3.843233     0.1056E+03   0.06373  -0.15933
     699.00   3.844477     0.1063E+03   0.06648  -0.16621
     701.00   3.845718     0.1066E+03   0.06791  -0.16977
     703.00   3.846955     0.1084E+03   0.07508  -0.18771
     705.00   3.848189     0.1067E+03   0.06817  -0.17043
     707.00   3.849419     0.1001E+03   0.04043  -0.10107
     709.00   3.850646     0.9260E+02   0.00665  -0.01662
     711.00   3.851870     0.8806E+02  -0.01518   0.03796
     713.00   3.853090     0.8511E+02  -0.02995   0.07488
     715.00   3.854306     0.8456E+02  -0.03276   0.08191
     717.00   3.855519     0.8669E+02  -0.02198   0.05494
     719.00   3.856729     0.8494E+02  -0.03083   0.07708
     721.00   3.857935     0.8808E+02  -0.01506   0.03765
     723.00   3.859138     0.9199E+02   0.00381  -0.00952
     725.00   3.860338     0.9403E+02   0.01330  -0.03324
     727.00   3.861534     0.9609E+02   0.02274  -0.05685
     729.00   3.862728     0.9685E+02   0.02616  -0.06540
     731.00   3.863917     0.1028E+03   0.05221  -0.13054
     733.00   3.865104     0.1035E+03   0.05479  -0.13698
     735.00   3.866287     0.1078E+03   0.07260  -0.18149
     737.00   3.867467     0.1131E+03   0.09362  -0.23406
     739.00   3.868644     0.1110E+03   0.08549  -0.21371
     741.00   3.869818     0.1145E+03   0.09887  -0.24718
     743.00   3.870989     0.1184E+03   0.11333  -0.28332
     745.00   3.872156     0.1173E+03   0.10921  -0.27303
     747.00   3.873321     0.1235E+03   0.13177  -0.32941
     749.00   3.874482     0.1233E+03   0.13108  -0.32769
     751.00   3.875640     0.1247E+03   0.13590  -0.33976
     753.00   3.876795     0.1293E+03   0.15155  -0.37887
     755.00   3.877947     0.1310E+03   0.15739  -0.39347
     757.00   3.879096     0.1321E+03   0.16107  -0.40268
     759.00   3.880242     0.1250E+03   0.13698  -0.34245
     761.00   3.881385     0.1189E+03   0.11507  -0.28768
     763.00   3.882524     0.1115E+03   0.08744  -0.21860
     765.00   3.883662     0.1040E+03   0.05692  -0.14229
     767.00   3.884795     0.9562E+02   0.02058  -0.05144
     769.00   3.885926     0.9777E+02   0.03026  -0.07564
     771.00   3.887054     0.9604E+02   0.02248  -0.05619
     773.00   3.888180     0.9613E+02   0.02290  -0.05724
     775.00   3.889302     0.9559E+02   0.02046  -0.05116
     777.00   3.890421     0.9737E+02   0.02846  -0.07114
     779.00   3.891537     0.9853E+02   0.03361  -0.08404
     781.00   3.892651     0.9883E+02   0.03495  -0.08738
     783.00   3.893762     0.9881E+02   0.03484  -0.08710
     785.00   3.894870     0.9715E+02   0.02748  -0.06870
     787.00   3.895975     0.9994E+02   0.03979  -0.09947
     789.00   3.897077     0.9955E+02   0.03808  -0.09521
     791.00   3.898176     0.9649E+02   0.02451  -0.06128
     793.00   3.899273     0.9817E+02   0.03204  -0.08009
     795.00   3.900367     0.9797E+02   0.03112  -0.07780
     797.00   3.901458     0.1018E+03   0.04775  -0.11939
     799.00   3.902547     0.1023E+03   0.04991  -0.12478
     801.00   3.903632     0.1058E+03   0.06472  -0.16180
     803.00   3.904716     0.1075E+03   0.07131  -0.17827
     805.00   3.905796     0.1077E+03   0.07242  -0.18105
     807.00   3.906873     0.1128E+03   0.09236  -0.23090
     809.00   3.907948     0.1131E+03   0.09359  -0.23397
     811.00   3.909021     0.1157E+03   0.10335  -0.25837
     813.00   3.910090     0.1224E+03   0.12788  -0.31971
     815.00   3.911158     0.1266E+03   0.14241  -0.35601
     817.00   3.912222     0.1291E+03   0.15081  -0.37702
     819.00   3.913284     0.1270E+03   0.14390  -0.35975
     821.00   3.914343     0.1178E+03   0.11120  -0.27801
     823.00   3.915400     0.1184E+03   0.11346  -0.28364
     825.00   3.916454     0.1176E+03   0.11051  -0.27626
     827.00   3.917506     0.1181E+03   0.11245  -0.28112
     829.00   3.918555     0.1162E+03   0.10522  -0.26305
     831.00   3.919601     0.1116E+03   0.08760  -0.21901
     833.00   3.920645     0.1102E+03   0.08237  -0.20593
     835.00   3.921686     0.1099E+03   0.08098  -0.20244
     837.00   3.922725     0.1110E+03   0.08529  -0.21322
     839.00   3.923762     0.1073E+03   0.07075  -0.17687
     841.00   3.924796     0.1111E+03   0.08592  -0.21479
     843.00   3.925828     0.1058E+03   0.06471  -0.16177
     845.00   3.926857     0.9760E+02   0.02951  -0.07377
     847.00   3.927883     0.9752E+02   0.02912  -0.07281
     849.00   3.928908     0.9915E+02   0.03632  -0.09081
     851.00   3.929929     0.9466E+02   0.01620  -0.04051
     853.00   3.930949     0.9830E+02   0.03261  -0.08153
     855.00   3.931966     0.9279E+02   0.00757  -0.01892
     857.00   3.932981     0.1042E+03   0.05801  -0.14504
     859.00   3.933993     0.1038E+03   0.05643  -0.14107
     861.00   3.935003     0.1069E+03   0.06907  -0.17267
     863.00   3.936011     0.1100E+03   0.08124  -0.20311
     865.00   3.937016     0.1107E+03   0.08406  -0.21014
     867.00   3.938019     0.1010E+03   0.04447  -0.11117
     869.00   3.939020     0.1107E+03   0.08423  -0.21056
     871.00   3.940018     0.1159E+03   0.10428  -0.26070
     873.00   3.941014     0.1179E+03   0.11158  -0.27895
     875.00   3.942008     0.1179E+03   0.11141  -0.27852
     877.00   3.943000     0.1196E+03   0.11765  -0.29413
     879.00   3.943989     0.1253E+03   0.13811  -0.34527
     881.00   3.944976     0.1244E+03   0.13493  -0.33732
     883.00   3.945961     0.1260E+03   0.14030  -0.35075
     885.00   3.946943     0.1218E+03   0.12566  -0.31414
     887.00   3.947924     0.1140E+03   0.09713  -0.24283
     889.00   3.948902     0.1133E+03   0.09430  -0.23576
     891.00   3.949878     0.1154E+03   0.10241  -0.25604
     893.00   3.950851     0.1141E+03   0.09752  -0.24379
     895.00   3.951823     0.1154E+03   0.10225  -0.25563
     897.00   3.952792     0.1160E+03   0.10433  -0.26081
     899.00   3.953760     0.1165E+03   0.10636  -0.26589
     901.00   3.954725     0.1152E+03   0.10150  -0.25375
     903.00   3.955688     0.1216E+03   0.12482  -0.31205
     905.00   3.956649     0.1273E+03   0.14487  -0.36216
     907.00   3.957607     0.1306E+03   0.15592  -0.38981
     909.00   3.958564     0.1313E+03   0.15843  -0.39607
     911.00   3.959518     0.1340E+03   0.16723  -0.41807
     913.00   3.960471     0.1362E+03   0.17431  -0.43578
     915.00   3.961421     0.1354E+03   0.17170  -0.42926
     917.00   3.962369     0.1360E+03   0.17350  -0.43375
     919.00   3.963315     0.1378E+03   0.17937  -0.44842
     921.00   3.964260     0.1285E+03   0.14897  -0.37242
     923.00   3.965202     0.1252E+03   0.13768  -0.34421
     925.00   3.966142     0.1224E+03   0.12783  -0.31958
     927.00   3.967080     0.1256E+03   0.13908  -0.34770
     929.00   3.968016     0.1194E+03   0.11713  -0.29283
     931.00   3.968950     0.1200E+03   0.11919  -0.29797
     933.00   3.969882     0.1223E+03   0.12763  -0.31908
     935.00   3.970812     0.1224E+03   0.12783  -0.31957
     937.00   3.971740     0.1187E+03   0.11447  -0.28618
     939.00   3.972666     0.1233E+03   0.13103  -0.32758
     941.00   3.973590     0.1232E+03   0.13071  -0.32678
     943.00   3.974512     0.1258E+03   0.13984  -0.34961
     945.00   3.975432     0.1256E+03   0.13901  -0.34753
     947.00   3.976350     0.1300E+03   0.15415  -0.38537
     949.00   3.977266     0.1313E+03   0.15819  -0.39549
     951.00   3.978180     0.1246E+03   0.13561  -0.33901
     953.00   3.979093     0.1286E+03   0.14935  -0.37336
     955.00   3.980003     0.1283E+03   0.14842  -0.37106
     957.00   3.980912     0.1308E+03   0.15656  -0.39140
     959.00   3.981819     0.1323E+03   0.16145  -0.40363
     961.00   3.982723     0.1312E+03   0.15786  -0.39464
     963.00   3.983626     0.1339E+03   0.16669  -0.41673
     965.00   3.984527     0.1324E+03   0.16184  -0.40460
     967.00   3.985426     0.1333E+03   0.16486  -0.41216
     969.00   3.986324     0.1347E+03   0.16933  -0.42334
     971.00   3.987219     0.1311E+03   0.15756  -0.39389
     973.00   3.988113     0.1288E+03   0.14986  -0.37466
     975.00   3.989005     0.1289E+03   0.15043  -0.37608
     977.00   3.989895     0.1301E+03   0.15439  -0.38599
     979.00   3.990783     0.1293E+03   0.15175  -0.37938
     981.00   3.991669     0.1324E+03   0.16207  -0.40518
     983.00   3.992553     0.1310E+03   0.15738  -0.39345
     985.00   3.993436     0.1319E+03   0.16021  -0.40053
     987.00   3.994317     0.1313E+03   0.15833  -0.39583
     989.00   3.995196     0.1313E+03   0.15836  -0.39590
     991.00   3.996074     0.1315E+03   0.15911  -0.39778
     993.00   3.996949     0.1330E+03   0.16377  -0.40942
     995.00   3.997823     0.1342E+03   0.16796  -0.41990
     997.00   3.998695     0.1345E+03   0.16890  -0.42224
     999.00   3.999566     0.1344E+03   0.16834  -0.42085
    1003.00   4.001301     0.1366E+03   0.17538  -0.43845
    1008.00   4.003461     0.1369E+03   0.17659  -0.44149
    1013.00   4.005610     0.1421E+03   0.19267  -0.48168
    1018.00   4.007748     0.1406E+03   0.18798  -0.46995
    1023.00   4.009875     0.1431E+03   0.19579  -0.48946
    1028.00   4.011993     0.1445E+03   0.19984  -0.49960
    1033.00   4.014100     0.1450E+03   0.20137  -0.50344
    1038.00   4.016197     0.1447E+03   0.20049  -0.50123
    1043.00   4.018284     0.1465E+03   0.20585  -0.51463
    1048.00   4.020361     0.1463E+03   0.20530  -0.51325
    1053.00   4.022429     0.1410E+03   0.18931  -0.47327
    1058.00   4.024486     0.1360E+03   0.17372  -0.43430
    1063.00   4.026533     0.1348E+03   0.16973  -0.42432
    1068.00   4.028571     0.1372E+03   0.17738  -0.44346
    1073.00   4.030600     0.1400E+03   0.18625  -0.46563
    1078.00   4.032619     0.1400E+03   0.18624  -0.46559
    1083.00   4.034628     0.1387E+03   0.18217  -0.45542
    1088.00   4.036629     0.1378E+03   0.17936  -0.44841
    1093.00   4.038620     0.1373E+03   0.17776  -0.44441
    1098.00   4.040603     0.1355E+03   0.17201  -0.43002
    1103.00   4.042576     0.1350E+03   0.17028  -0.42571
    1108.00   4.044539     0.1279E+03   0.14679  -0.36697
    1113.00   4.046495     0.1297E+03   0.15305  -0.38262
    1118.00   4.048442     0.1298E+03   0.15325  -0.38312
    1123.00   4.050380     0.1309E+03   0.15700  -0.39249
    1128.00   4.052309     0.1319E+03   0.16038  -0.40094
    1133.00   4.054230     0.1324E+03   0.16178  -0.40446
    1138.00   4.056142     0.1327E+03   0.16296  -0.40741
    1143.00   4.058046     0.1326E+03   0.16263  -0.40656
    1148.00   4.059942     0.1340E+03   0.16703  -0.41758
    1153.00   4.061830     0.1346E+03   0.16894  -0.42236
    1158.00   4.063708     0.1341E+03   0.16760  -0.41899
    1163.00   4.065579     0.1333E+03   0.16502  -0.41254
    1168.00   4.067443     0.1336E+03   0.16579  -0.41448
    1173.00   4.069298     0.1329E+03   0.16365  -0.40911
    1178.00   4.071145     0.1299E+03   0.15354  -0.38384
    1183.00   4.072985     0.1273E+03   0.14501  -0.36254
    1188.00   4.074817     0.1260E+03   0.14039  -0.35098
    1193.00   4.076640     0.1279E+03   0.14687  -0.36716
    1198.00   4.078457     0.1259E+03   0.14009  -0.35023
    1203.00   4.080266     0.1288E+03   0.14990  -0.37474
    1208.00   4.082067     0.1289E+03   0.15026  -0.37566
    1213.00   4.083861     0.1295E+03   0.15245  -0.38114
    1218.00   4.085648     0.1300E+03   0.15386  -0.38465
    1223.00   4.087426     0.1297E+03   0.15306  -0.38266
    1228.00   4.089198     0.1293E+03   0.15164  -0.37910
    1233.00   4.090963     0.1288E+03   0.14994  -0.37485
    1238.00   4.092721     0.1287E+03   0.14967  -0.37417
    1243.00   4.094471     0.1248E+03   0.13641  -0.34103
    1248.00   4.096214     0.1257E+03   0.13927  -0.34816
    1253.00   4.097951     0.1255E+03   0.13852  -0.34631
    1258.00   4.099681     0.1238E+03   0.13285  -0.33212
    1263.00   4.101403     0.1242E+03   0.13422  -0.33555
    1268.00   4.103119     0.1241E+03   0.13370  -0.33426
    1273.00   4.104828     0.1237E+03   0.13250  -0.33126
    1278.00   4.106531     0.1243E+03   0.13466  -0.33664
    1283.00   4.108227     0.1225E+03   0.12816  -0.32041
    1288.00   4.109916     0.1234E+03   0.13141  -0.32852
    1293.00   4.111598     0.1227E+03   0.12902  -0.32256
    1298.00   4.113275     0.1238E+03   0.13280  -0.33199
    1303.00   4.114944     0.1229E+03   0.12953  -0.32384
    1308.00   4.116608     0.1228E+03   0.12918  -0.32295
    1313.00   4.118265     0.1206E+03   0.12142  -0.30354
    1318.00   4.119915     0.1200E+03   0.11917  -0.29794
    1323.00   4.121560     0.1195E+03   0.11752  -0.29380
    1328.00   4.123198     0.1178E+03   0.11125  -0.27813
    1333.00   4.124830     0.1175E+03   0.11016  -0.27539
    1338.00   4.126456     0.1163E+03   0.10561  -0.26402
    1343.00   4.128076     0.1159E+03   0.10430  -0.26074
    1348.00   4.129690     0.1148E+03   0.09991  -0.24978
    1353.00   4.131298     0.1139E+03   0.09647  -0.24118
    1358.00   4.132900     0.1122E+03   0.09015  -0.22537
    1363.00   4.134496     0.1121E+03   0.08954  -0.22386
    1368.00   4.136086     0.1130E+03   0.09309  -0.23272
    1373.00   4.137671     0.1138E+03   0.09622  -0.24056
    1378.00   4.139249     0.1141E+03   0.09726  -0.24314
    1383.00   4.140822     0.1141E+03   0.09743  -0.24357
    1388.00   4.142389     0.1131E+03   0.09346  -0.23366
    1393.00   4.143951     0.9702E+02   0.02691  -0.06728
    1398.00   4.145507     0.9831E+02   0.03265  -0.08163
    1403.00   4.147058     0.9817E+02   0.03200  -0.08001
    1408.00   4.148602     0.9909E+02   0.03606  -0.09016
    1413.00   4.150142     0.9872E+02   0.03446  -0.08614
    1418.00   4.151676     0.9969E+02   0.03870  -0.09675
    1423.00   4.153205     0.9956E+02   0.03814  -0.09535
    1428.00   4.154728     0.9911E+02   0.03617  -0.09042
    1433.00   4.156246     0.1011E+03   0.04490  -0.11224
    1438.00   4.157759     0.1019E+03   0.04843  -0.12108
    1443.00   4.159266     0.1011E+03   0.04486  -0.11216
    1448.00   4.160769     0.1028E+03   0.05218  -0.13045
    1453.00   4.162266     0.1027E+03   0.05175  -0.12938
    1457.00   4.163460     0.1035E+03   0.05480  -0.13701
    1462.00   4.164948     0.9582E+02   0.02151  -0.05377
    1468.00   4.166726     0.9714E+02   0.02743  -0.06858
    1473.00   4.168202     0.9735E+02   0.02836  -0.07091
    1478.00   4.169674     0.9868E+02   0.03430  -0.08574
    1483.00   4.171141     0.9982E+02   0.03924  -0.09811
    1488.00   4.172603     0.9998E+02   0.03998  -0.09994
    1493.00   4.174060     0.1025E+03   0.05089  -0.12723
    1498.00   4.175512     0.1028E+03   0.05204  -0.13010
    1503.00   4.176959     0.1024E+03   0.05028  -0.12570
    1508.00   4.178401     0.1035E+03   0.05503  -0.13756
    1513.00   4.179839     0.1054E+03   0.06303  -0.15757
    1518.00   4.181272     0.1064E+03   0.06686  -0.16715
    1523.00   4.182700     0.1069E+03   0.06908  -0.17270
    1528.00   4.184123     0.1080E+03   0.07332  -0.18331
    1533.00   4.185542     0.1082E+03   0.07446  -0.18615
    1538.00   4.186956     0.1041E+03   0.05755  -0.14388
    1543.00   4.188366     0.1059E+03   0.06511  -0.16277
    1548.00   4.189771     0.1068E+03   0.06864  -0.17161
    1553.00   4.191172     0.1070E+03   0.06940  -0.17351
    1558.00   4.192567     0.1013E+03   0.04570  -0.11425
    1563.00   4.193959     0.1025E+03   0.05081  -0.12703
    1568.00   4.195346     0.1041E+03   0.05759  -0.14398
    1573.00   4.196729     0.1072E+03   0.07018  -0.17544
    1578.00   4.198107     0.9291E+02   0.00813  -0.02032
    1583.00   4.199481     0.9791E+02   0.03087  -0.07718
    1588.00   4.200850     0.1007E+03   0.04319  -0.10798
    1593.00   4.202216     0.1046E+03   0.05949  -0.14873
    1598.00   4.203577     0.1076E+03   0.07186  -0.17965
    1605.00   4.205475     0.9893E+02   0.03537  -0.08842
    1615.00   4.208173     0.1048E+03   0.06044  -0.15110
    1625.00   4.210854     0.9782E+02   0.03048  -0.07621
    1635.00   4.213518     0.1048E+03   0.06037  -0.15093
    1645.00   4.216166     0.9882E+02   0.03491  -0.08726
    1655.00   4.218798     0.1033E+03   0.05406  -0.13515
    1665.00   4.221415     0.9892E+02   0.03532  -0.08829
    1675.00   4.224015     0.1027E+03   0.05144  -0.12861
    1685.00   4.226600     0.1047E+03   0.06014  -0.15034
    1695.00   4.229170     0.1014E+03   0.04593  -0.11482
    1705.00   4.231725     0.1014E+03   0.04617  -0.11542
    1715.00   4.234264     0.9874E+02   0.03454  -0.08636
    1725.00   4.236789     0.9763E+02   0.02961  -0.07403
    1735.00   4.239300     0.9407E+02   0.01349  -0.03373
    1745.00   4.241796     0.9281E+02   0.00765  -0.01913
    1755.00   4.244277     0.9156E+02   0.00177  -0.00444
    1765.00   4.246745     0.8852E+02  -0.01291   0.03227
    1775.00   4.249198     0.8582E+02  -0.02639   0.06597
    1785.00   4.251638     0.8389E+02  -0.03625   0.09064
    1795.00   4.254065     0.8098E+02  -0.05156   0.12890
    1805.00   4.256477     0.7862E+02  -0.06443   0.16107
    1815.00   4.258877     0.7721E+02  -0.07230   0.18076
    1825.00   4.261263     0.7598E+02  -0.07925   0.19813
    1835.00   4.263636     0.7479E+02  -0.08613   0.21533
    1845.00   4.265996     0.7319E+02  -0.09551   0.23877
    1855.00   4.268344     0.7191E+02  -0.10314   0.25786
    1865.00   4.270679     0.6980E+02  -0.11611   0.29028
    1875.00   4.273001     0.6849E+02  -0.12434   0.31086
    1885.00   4.275311     0.6785E+02  -0.12843   0.32108
    1895.00   4.277609     0.6612E+02  -0.13963   0.34908
    1905.00   4.279895     0.6622E+02  -0.13897   0.34742
    1915.00   4.282169     0.6515E+02  -0.14605   0.36512
    1925.00   4.284431     0.6437E+02  -0.15126   0.37815
    1935.00   4.286681     0.6300E+02  -0.16059   0.40147
    1945.00   4.288919     0.6170E+02  -0.16969   0.42423
    1955.00   4.291147     0.6078E+02  -0.17622   0.44056
    1965.00   4.293363     0.5936E+02  -0.18643   0.46606
    1975.00   4.295567     0.5755E+02  -0.19987   0.49968
    1985.00   4.297760     0.5668E+02  -0.20652   0.51629
    1995.00   4.299943     0.5605E+02  -0.21137   0.52843
    2005.00   4.302114     0.5563E+02  -0.21463   0.53659
    2015.00   4.304275     0.5490E+02  -0.22037   0.55092
    2025.00   4.306425     0.5392E+02  -0.22821   0.57054
    2035.00   4.308564     0.5353E+02  -0.23134   0.57834
    2045.00   4.310693     0.5343E+02  -0.23218   0.58046
    2055.00   4.312812     0.5289E+02  -0.23661   0.59153
    2065.00   4.314920     0.5238E+02  -0.24078   0.60194
    2075.00   4.317018     0.5207E+02  -0.24340   0.60849
    2085.00   4.319106     0.5162E+02  -0.24713   0.61784
    2095.00   4.321184     0.5107E+02  -0.25175   0.62937
    2105.00   4.323252     0.5091E+02  -0.25315   0.63287
    2115.00   4.325311     0.5031E+02  -0.25827   0.64567
    2125.00   4.327359     0.4981E+02  -0.26266   0.65666
    2135.00   4.329398     0.4949E+02  -0.26540   0.66349
    2145.00   4.331428     0.4898E+02  -0.26990   0.67475
    2155.00   4.333447     0.4841E+02  -0.27503   0.68758
    2165.00   4.335458     0.4775E+02  -0.28098   0.70246
    2175.00   4.337460     0.4711E+02  -0.28686   0.71716
    2185.00   4.339452     0.4661E+02  -0.29145   0.72861
    2195.00   4.341434     0.4609E+02  -0.29633   0.74084
    2205.00   4.343409     0.4519E+02  -0.30495   0.76238
    2215.00   4.345374     0.4493E+02  -0.30741   0.76852
    2225.00   4.347330     0.4405E+02  -0.31601   0.79003
    2235.00   4.349277     0.4350E+02  -0.32150   0.80376
    2245.00   4.351216     0.4290E+02  -0.32747   0.81867
    2255.00   4.353147     0.4239E+02  -0.33273   0.83182
    2265.00   4.355068     0.4159E+02  -0.34095   0.85238
    2275.00   4.356981     0.4124E+02  -0.34463   0.86158
    2285.00   4.358886     0.4048E+02  -0.35273   0.88183
    2295.00   4.360783     0.3145E+02  -0.46227   1.15568
    2305.00   4.362671     0.3554E+02  -0.40929   1.02322
    2315.00   4.364551     0.3551E+02  -0.40964   1.02409
    2325.00   4.366423     0.2928E+02  -0.49332   1.23331
    2335.00   4.368287     0.3247E+02  -0.44853   1.12133
    2345.00   4.370143     0.2890E+02  -0.49902   1.24755
    2355.00   4.371991     0.2711E+02  -0.52686   1.31716
    2365.00   4.373831     0.2962E+02  -0.48837   1.22092
    2375.00   4.375664     0.2708E+02  -0.52731   1.31826
    2385.00   4.377488     0.2537E+02  -0.55559   1.38897
    2395.00   4.379306     0.2718E+02  -0.52564   1.31409
    2405.00   4.381115     0.2554E+02  -0.55265   1.38162
    2415.00   4.382917     0.2343E+02  -0.59022   1.47555
    2425.00   4.384712     0.2480E+02  -0.56556   1.41389
    2435.00   4.386499     0.2304E+02  -0.59750   1.49376
    2445.00   4.388279     0.2309E+02  -0.59649   1.49121
    2455.00   4.390052     0.2179E+02  -0.62177   1.55443
    2465.00   4.391817     0.2128E+02  -0.63193   1.57983
    2475.00   4.393575     0.2045E+02  -0.64925   1.62312
    2485.00   4.395327     0.1716E+02  -0.72536   1.81340
    2495.00   4.397071     0.1578E+02  -0.76192   1.90479
    2505.00   4.398808     0.1597E+02  -0.75662   1.89156
    2515.00   4.400538     0.1525E+02  -0.77662   1.94156
    2525.00   4.402262     0.1557E+02  -0.76777   1.91943
    2535.00   4.403978     0.1557E+02  -0.76766   1.91914
    2545.00   4.405688     0.1542E+02  -0.77182   1.92956
    2555.00   4.407391     0.1548E+02  -0.77008   1.92521
    2565.00   4.409087     0.1573E+02  -0.76332   1.90830
    2575.00   4.410777     0.1599E+02  -0.75610   1.89025
    2585.00   4.412460     0.1581E+02  -0.76091   1.90228
    2595.00   4.414137     0.1586E+02  -0.75956   1.89889
    2605.00   4.415808     0.1588E+02  -0.75915   1.89787
    2615.00   4.417472     0.1566E+02  -0.76518   1.91294
    2625.00   4.419129     0.1546E+02  -0.77070   1.92676
    2635.00   4.420781     0.1544E+02  -0.77140   1.92851
    2645.00   4.422426     0.1530E+02  -0.77527   1.93818
    2655.00   4.424065     0.1514E+02  -0.77991   1.94976
    2665.00   4.425697     0.1492E+02  -0.78620   1.96550
    2675.00   4.427324     0.1504E+02  -0.78277   1.95691
    2685.00   4.428945     0.1488E+02  -0.78741   1.96852
    2695.00   4.430559     0.1462E+02  -0.79487   1.98719
    2705.00   4.432167     0.1460E+02  -0.79545   1.98864
    2715.00   4.433770     0.1448E+02  -0.79927   1.99817
    2725.00   4.435367     0.1439E+02  -0.80203   2.00507
    2735.00   4.436957     0.1416E+02  -0.80883   2.02207
    2745.00   4.438542     0.1412E+02  -0.81007   2.02517
    2755.00   4.440122     0.1404E+02  -0.81267   2.03166
    2765.00   4.441695     0.1386E+02  -0.81812   2.04531
    2775.00   4.443263     0.1368E+02  -0.82397   2.05992
    2785.00   4.444825     0.1362E+02  -0.82579   2.06447
    2795.00   4.446382     0.1355E+02  -0.82802   2.07005
    2805.00   4.447933     0.1341E+02  -0.83240   2.08099
    2815.00   4.449478     0.1325E+02  -0.83761   2.09402
    2825.00   4.451018     0.1317E+02  -0.84044   2.10111
    2835.00   4.452553     0.1310E+02  -0.84272   2.10680
    2845.00   4.454082     0.1296E+02  -0.84742   2.11855
    2855.00   4.455606     0.1284E+02  -0.85137   2.12842
    2865.00   4.457125     0.1274E+02  -0.85487   2.13718
    2875.00   4.458638     0.1264E+02  -0.85830   2.14575
    2885.00   4.460146     0.1252E+02  -0.86225   2.15563
    2895.00   4.461648     0.1242E+02  -0.86597   2.16493
    2905.00   4.463146     0.1230E+02  -0.87011   2.17526
    2915.00   4.464639     0.1220E+02  -0.87350   2.18375
    2925.00   4.466126     0.1202E+02  -0.87993   2.19983
    2935.00   4.467608     0.1198E+02  -0.88133   2.20331
    2945.00   4.469085     0.1186E+02  -0.88576   2.21441
    2955.00   4.470557     0.1176E+02  -0.88953   2.22382
    2965.00   4.472025     0.1168E+02  -0.89257   2.23141
    2975.00   4.473487     0.1158E+02  -0.89636   2.24090
    2985.00   4.474944     0.1145E+02  -0.90105   2.25264
    2995.00   4.476397     0.1134E+02  -0.90524   2.26310
    3005.00   4.477844     0.1127E+02  -0.90789   2.26972
    3015.00   4.479287     0.1125E+02  -0.90869   2.27173
    3025.00   4.480725     0.1119E+02  -0.91117   2.27793
    3035.00   4.482159     0.1114E+02  -0.91318   2.28295
    3045.00   4.483587     0.1112E+02  -0.91382   2.28456
    3055.00   4.485011     0.1107E+02  -0.91590   2.28975
    3065.00   4.486430     0.1102E+02  -0.91764   2.29410
    3075.00   4.487845     0.1101E+02  -0.91834   2.29584
    3085.00   4.489255     0.1095E+02  -0.92056   2.30139
    3095.00   4.490661     0.1094E+02  -0.92077   2.30192
    3105.00   4.492062     0.1093E+02  -0.92146   2.30365
    3115.00   4.493458     0.1083E+02  -0.92516   2.31289
    3125.00   4.494850     0.1082E+02  -0.92567   2.31418
    3135.00   4.496238     0.1078E+02  -0.92751   2.31878
    3145.00   4.497621     0.1072E+02  -0.92964   2.32409
    3155.00   4.499000     0.1066E+02  -0.93213   2.33031
    3165.00   4.500374     0.1060E+02  -0.93482   2.33705
    3175.00   4.501744     0.1057E+02  -0.93592   2.33979
    3185.00   4.503109     0.1054E+02  -0.93727   2.34317
    3195.00   4.504471     0.1052E+02  -0.93810   2.34526
    3210.00   4.506505     0.1045E+02  -0.94089   2.35221
    3230.00   4.509202     0.1035E+02  -0.94496   2.36240
    3250.00   4.511883     0.1027E+02  -0.94828   2.37071
    3270.00   4.514548     0.1016E+02  -0.95312   2.38281
    3290.00   4.517196     0.1002E+02  -0.95914   2.39785
    3310.00   4.519828     0.9935E+01  -0.96277   2.40693
    3330.00   4.522444     0.9803E+01  -0.96858   2.42145
    3350.00   4.525045     0.9690E+01  -0.97363   2.43407
    3370.00   4.527630     0.9555E+01  -0.97972   2.44931
    3390.00   4.530200     0.9401E+01  -0.98676   2.46690
    3410.00   4.532754     0.9247E+01  -0.99394   2.48485
    3430.00   4.535294     0.9119E+01  -0.99998   2.49996
    3450.00   4.537819     0.8969E+01  -1.00722   2.51806
    3470.00   4.540329     0.8816E+01  -1.01470   2.53675
    3490.00   4.542826     0.8676E+01  -1.02163   2.55409
    3510.00   4.545307     0.8535E+01  -1.02875   2.57187
    3530.00   4.547775     0.8381E+01  -1.03664   2.59159
    3550.00   4.550228     0.8246E+01  -1.04371   2.60928
    3570.00   4.552669     0.8100E+01  -1.05146   2.62865
    3590.00   4.555095     0.7965E+01  -1.05879   2.64697
    3610.00   4.557508     0.7834E+01  -1.06596   2.66490
    3630.00   4.559907     0.7692E+01  -1.07392   2.68481
    3650.00   4.562293     0.7547E+01  -1.08219   2.70548
    3670.00   4.564666     0.7413E+01  -1.08996   2.72491
    3690.00   4.567026     0.7267E+01  -1.09860   2.74650
    3710.00   4.569374     0.7132E+01  -1.10676   2.76691
    3730.00   4.571709     0.7020E+01  -1.11364   2.78410
    3750.00   4.574031     0.6876E+01  -1.12264   2.80659
    3770.00   4.576342     0.6771E+01  -1.12932   2.82331
    3790.00   4.578639     0.6639E+01  -1.13784   2.84460
    3810.00   4.580925     0.6520E+01  -1.14571   2.86427
    3830.00   4.583199     0.6409E+01  -1.15314   2.88285
    3850.00   4.585461     0.6294E+01  -1.16104   2.90259
    3870.00   4.587711     0.6164E+01  -1.17009   2.92523
    3890.00   4.589950     0.6055E+01  -1.17784   2.94460
    3910.00   4.592176     0.5947E+01  -1.18566   2.96416
    3930.00   4.594393     0.5836E+01  -1.19382   2.98454
    3950.00   4.596597     0.5714E+01  -1.20302   3.00756
    3970.00   4.598790     0.5612E+01  -1.21081   3.02704
    3990.00   4.600973     0.5493E+01  -1.22016   3.05041
    4010.00   4.603145     0.5402E+01  -1.22741   3.06851
    4030.00   4.605305     0.5309E+01  -1.23498   3.08745
    4050.00   4.607455     0.5204E+01  -1.24365   3.10911
    4070.00   4.609594     0.5110E+01  -1.25153   3.12882
    4090.00   4.611723     0.5016E+01  -1.25960   3.14899
    4110.00   4.613842     0.4933E+01  -1.26688   3.16721
    4130.00   4.615950     0.4853E+01  -1.27393   3.18481
    4150.00   4.618048     0.4769E+01  -1.28153   3.20382
    4170.00   4.620136     0.4690E+01  -1.28877   3.22192
    4190.00   4.622214     0.4609E+01  -1.29639   3.24098
    4210.00   4.624282     0.4528E+01  -1.30403   3.26008
    4230.00   4.626340     0.4466E+01  -1.30999   3.27498
    4250.00   4.628389     0.4387E+01  -1.31779   3.29447
    4270.00   4.630428     0.4321E+01  -1.32441   3.31103
    4290.00   4.632457     0.4169E+01  -1.33990   3.34975
    4310.00   4.634478     0.4008E+01  -1.35700   3.39249
    4330.00   4.636488     0.3976E+01  -1.36053   3.40132
    4350.00   4.638489     0.3850E+01  -1.37449   3.43623
    4370.00   4.640481     0.3763E+01  -1.38447   3.46119
    4390.00   4.642465     0.3692E+01  -1.39266   3.48165
    4410.00   4.644439     0.3590E+01  -1.40487   3.51218
    4430.00   4.646404     0.3534E+01  -1.41171   3.52928
    4450.00   4.648360     0.3475E+01  -1.41899   3.54747
    4470.00   4.650308     0.3388E+01  -1.43005   3.57512
    4490.00   4.652246     0.3359E+01  -1.43371   3.58428
    4510.00   4.654177     0.3291E+01  -1.44267   3.60666
    4530.00   4.656098     0.3225E+01  -1.45142   3.62854
    4550.00   4.658011     0.3193E+01  -1.45579   3.63947
    4570.00   4.659916     0.3150E+01  -1.46165   3.65413
    4590.00   4.661813     0.3077E+01  -1.47176   3.67940
    4610.00   4.663701     0.3057E+01  -1.47462   3.68656
    4630.00   4.665581     0.3005E+01  -1.48215   3.70536
    4650.00   4.667453     0.2969E+01  -1.48736   3.71839
    4670.00   4.669317     0.2939E+01  -1.49170   3.72926
    4690.00   4.671173     0.2889E+01  -1.49922   3.74806
    4710.00   4.673021     0.2844E+01  -1.50606   3.76514
    4730.00   4.674861     0.2826E+01  -1.50872   3.77179
    4750.00   4.676694     0.2773E+01  -1.51695   3.79236
    4770.00   4.678518     0.2736E+01  -1.52283   3.80708
    4790.00   4.680336     0.2705E+01  -1.52771   3.81927
    4810.00   4.682145     0.2652E+01  -1.53646   3.84115
    4830.00   4.683947     0.2638E+01  -1.53865   3.84664
    4850.00   4.685741     0.2595E+01  -1.54575   3.86437
    4870.00   4.687529     0.2552E+01  -1.55310   3.88275
    4890.00   4.689309     0.2516E+01  -1.55918   3.89795
    4910.00   4.691082     0.2485E+01  -1.56467   3.91169
    4930.00   4.692847     0.2448E+01  -1.57117   3.92793
    4950.00   4.694605     0.2410E+01  -1.57794   3.94485
    4970.00   4.696356     0.2386E+01  -1.58227   3.95567
    4990.00   4.698101     0.2353E+01  -1.58830   3.97075
    5010.00   4.699838     0.2322E+01  -1.59416   3.98540
    5030.00   4.701568     0.2291E+01  -1.60000   4.00000
    5050.00   4.703291     0.2251E+01  -1.60754   4.01884
    5070.00   4.705008     0.2228E+01  -1.61205   4.03012
    5090.00   4.706717     0.2198E+01  -1.61789   4.04471
    5110.00   4.708421     0.2164E+01  -1.62464   4.06161
    5130.00   4.710117     0.2144E+01  -1.62873   4.07182
    5150.00   4.711807     0.2110E+01  -1.63571   4.08927
    5170.00   4.713490     0.2092E+01  -1.63948   4.09871
    5190.00   4.715167     0.2059E+01  -1.64634   4.11585
    5210.00   4.716838     0.2035E+01  -1.65137   4.12843
    5230.00   4.718502     0.2003E+01  -1.65819   4.14548
    5250.00   4.720160     0.1983E+01  -1.66266   4.15664
    5270.00   4.721810     0.1965E+01  -1.66651   4.16629
    5290.00   4.723455     0.1930E+01  -1.67437   4.18593
    5310.00   4.725095     0.1905E+01  -1.68000   4.19999
    5330.00   4.726727     0.1885E+01  -1.68459   4.21147
    5350.00   4.728354     0.1862E+01  -1.69000   4.22499
    5370.00   4.729974     0.1840E+01  -1.69512   4.23781
    5390.00   4.731589     0.1818E+01  -1.70036   4.25090
    5410.00   4.733197     0.1796E+01  -1.70567   4.26418
    5430.00   4.734800     0.1768E+01  -1.71256   4.28139
    5450.00   4.736397     0.1753E+01  -1.71617   4.29043
    5470.00   4.737988     0.1727E+01  -1.72258   4.30644
    5490.00   4.739573     0.1708E+01  -1.72750   4.31876
    5510.00   4.741152     0.1686E+01  -1.73311   4.33278
    5530.00   4.742725     0.1678E+01  -1.73522   4.33806
    5550.00   4.744293     0.1644E+01  -1.74397   4.35993
    5570.00   4.745855     0.1633E+01  -1.74700   4.36751
    5590.00   4.747412     0.1609E+01  -1.75339   4.38347
    5610.00   4.748963     0.1593E+01  -1.75763   4.39408
    5630.00   4.750508     0.1569E+01  -1.76436   4.41089
    5650.00   4.752048     0.1556E+01  -1.76805   4.42014
    5670.00   4.753583     0.1537E+01  -1.77328   4.43319
    5690.00   4.755112     0.1514E+01  -1.77989   4.44972
    5710.00   4.756636     0.1502E+01  -1.78328   4.45820
    5730.00   4.758155     0.1483E+01  -1.78872   4.47180
    5750.00   4.759668     0.1466E+01  -1.79389   4.48474
    5770.00   4.761176     0.1447E+01  -1.79943   4.49857
    5790.00   4.762679     0.1434E+01  -1.80350   4.50875
    5810.00   4.764176     0.1414E+01  -1.80960   4.52399
    5830.00   4.765669     0.1398E+01  -1.81446   4.53615
    5850.00   4.767156     0.1382E+01  -1.81946   4.54864
    5870.00   4.768638     0.1363E+01  -1.82549   4.56373
    5890.00   4.770115     0.1348E+01  -1.83033   4.57582
    5910.00   4.771587     0.1333E+01  -1.83512   4.58779
    5930.00   4.773055     0.1318E+01  -1.83999   4.59999
    5950.00   4.774517     0.1301E+01  -1.84565   4.61414
    5970.00   4.775974     0.1288E+01  -1.84999   4.62498
    5990.00   4.777427     0.1273E+01  -1.85508   4.63769
    6010.00   4.778874     0.1258E+01  -1.86016   4.65040
    6030.00   4.780317     0.1244E+01  -1.86528   4.66321
    6050.00   4.781755     0.1227E+01  -1.87098   4.67744
    6070.00   4.783189     0.1214E+01  -1.87590   4.68975
    6090.00   4.784617     0.1199E+01  -1.88099   4.70247
    6110.00   4.786041     0.1185E+01  -1.88631   4.71577
    6130.00   4.787460     0.1173E+01  -1.89082   4.72706
    6150.00   4.788875     0.1160E+01  -1.89562   4.73906
    6170.00   4.790285     0.1147E+01  -1.90028   4.75070
    6190.00   4.791691     0.1134E+01  -1.90537   4.76342
    6210.00   4.793092     0.1122E+01  -1.91008   4.77521
    6230.00   4.794488     0.1108E+01  -1.91550   4.78876
    6250.00   4.795880     0.1094E+01  -1.92089   4.80223
    6270.00   4.797267     0.1082E+01  -1.92587   4.81466
    6290.00   4.798651     0.1070E+01  -1.93050   4.82626
    6310.00   4.800029     0.1058E+01  -1.93564   4.83910
    6330.00   4.801404     0.1047E+01  -1.93985   4.84964
    6350.00   4.802773     0.1035E+01  -1.94514   4.86285
    6370.00   4.804139     0.1024E+01  -1.94945   4.87363
    6390.00   4.805501     0.1012E+01  -1.95496   4.88739
    6420.00   4.807535     0.9953E+00  -1.96202   4.90505
    6460.00   4.810232     0.9728E+00  -1.97194   4.92986
    6500.00   4.812913     0.9514E+00  -1.98157   4.95392
    6540.00   4.815578     0.9306E+00  -1.99120   4.97799
    6580.00   4.818226     0.9107E+00  -2.00059   5.00147
    6620.00   4.820858     0.8906E+00  -2.01029   5.02572
    6660.00   4.823474     0.8714E+00  -2.01973   5.04932
    6700.00   4.826075     0.8527E+00  -2.02914   5.07286
    6740.00   4.828660     0.8341E+00  -2.03873   5.09682
    6780.00   4.831230     0.8164E+00  -2.04807   5.12018
    6820.00   4.833784     0.7989E+00  -2.05749   5.14371
    6860.00   4.836324     0.7822E+00  -2.06662   5.16656
    6900.00   4.838849     0.7656E+00  -2.07596   5.18990
    6940.00   4.841359     0.7496E+00  -2.08515   5.21287
    6980.00   4.843855     0.7339E+00  -2.09429   5.23572
    7020.00   4.846337     0.7185E+00  -2.10355   5.25888
    7060.00   4.848804     0.7038E+00  -2.11252   5.28130
    7100.00   4.851258     0.6892E+00  -2.12159   5.30397
    7140.00   4.853698     0.6752E+00  -2.13054   5.32635
    7180.00   4.856124     0.6613E+00  -2.13955   5.34888
    7220.00   4.858537     0.6479E+00  -2.14843   5.37107
    7260.00   4.860937     0.6347E+00  -2.15735   5.39338
    7300.00   4.863323     0.6220E+00  -2.16615   5.41538
    7340.00   4.865696     0.6094E+00  -2.17504   5.43759
    7380.00   4.868056     0.5974E+00  -2.18372   5.45929
    7420.00   4.870404     0.5851E+00  -2.19270   5.48174
    7460.00   4.872739     0.5736E+00  -2.20133   5.50332
    7500.00   4.875061     0.5624E+00  -2.20990   5.52474
    7540.00   4.877371     0.5513E+00  -2.21858   5.54645
    7580.00   4.879669     0.5409E+00  -2.22687   5.56719
    7620.00   4.881955     0.5304E+00  -2.23538   5.58845
    7660.00   4.884229     0.5201E+00  -2.24385   5.60963
    7700.00   4.886491     0.5101E+00  -2.25234   5.63084
    7740.00   4.888741     0.5004E+00  -2.26068   5.65169
    7780.00   4.890980     0.4908E+00  -2.26901   5.67252
    7820.00   4.893207     0.4815E+00  -2.27734   5.69334
    7860.00   4.895422     0.4724E+00  -2.28560   5.71400
    7900.00   4.897627     0.4636E+00  -2.29385   5.73462
    7940.00   4.899820     0.4549E+00  -2.30204   5.75509
    7980.00   4.902003     0.4465E+00  -2.31017   5.77543
    8020.00   4.904174     0.4380E+00  -2.31845   5.79613
    8060.00   4.906335     0.4300E+00  -2.32650   5.81625
    8100.00   4.908485     0.4222E+00  -2.33448   5.83619
    8140.00   4.910625     0.4144E+00  -2.34254   5.85634
    8180.00   4.912753     0.4069E+00  -2.35043   5.87607
    8220.00   4.914872     0.3996E+00  -2.35836   5.89590
    8260.00   4.916980     0.3923E+00  -2.36629   5.91571
    8300.00   4.919078     0.3853E+00  -2.37415   5.93536
    8340.00   4.921166     0.3783E+00  -2.38208   5.95521
    8380.00   4.923244     0.3716E+00  -2.38990   5.97475
    8420.00   4.925312     0.3651E+00  -2.39756   5.99390
    8460.00   4.927370     0.3586E+00  -2.40533   6.01333
    8500.00   4.929419     0.3523E+00  -2.41301   6.03253
    8540.00   4.931458     0.3462E+00  -2.42065   6.05162
    8580.00   4.933487     0.3402E+00  -2.42825   6.07061
    8620.00   4.935507     0.3343E+00  -2.43584   6.08959
    8660.00   4.937518     0.3285E+00  -2.44337   6.10842
    8700.00   4.939519     0.3229E+00  -2.45092   6.12730
    8740.00   4.941511     0.3174E+00  -2.45840   6.14600
    8780.00   4.943495     0.3119E+00  -2.46589   6.16471
    8820.00   4.945469     0.3066E+00  -2.47337   6.18343
    8860.00   4.947433     0.3014E+00  -2.48076   6.20190
    8900.00   4.949390     0.2963E+00  -2.48816   6.22040
    8940.00   4.951338     0.2914E+00  -2.49544   6.23859
    8980.00   4.953277     0.2865E+00  -2.50289   6.25722
    9020.00   4.955207     0.2818E+00  -2.51002   6.27506
    9060.00   4.957129     0.2771E+00  -2.51724   6.29311
    9100.00   4.959042     0.2724E+00  -2.52468   6.31171
    9140.00   4.960946     0.2681E+00  -2.53173   6.32932
    9180.00   4.962843     0.2637E+00  -2.53890   6.34725
    9220.00   4.964731     0.2594E+00  -2.54593   6.36482
    9260.00   4.966611     0.2552E+00  -2.55304   6.38260
    9300.00   4.968483     0.2511E+00  -2.56010   6.40025
    9340.00   4.970347     0.2471E+00  -2.56717   6.41792
    9380.00   4.972203     0.2431E+00  -2.57416   6.43540
    9420.00   4.974051     0.2392E+00  -2.58115   6.45287
    9460.00   4.975891     0.2354E+00  -2.58814   6.47035
    9500.00   4.977724     0.2317E+00  -2.59506   6.48765
    9540.00   4.979548     0.2280E+00  -2.60196   6.50490
    9580.00   4.981365     0.2245E+00  -2.60882   6.52204
    9620.00   4.983175     0.2209E+00  -2.61569   6.53922
    9660.00   4.984977     0.2175E+00  -2.62250   6.55624
    9700.00   4.986772     0.2141E+00  -2.62928   6.57321
    9740.00   4.988559     0.2107E+00  -2.63624   6.59061
    9780.00   4.990339     0.2075E+00  -2.64286   6.60715
    9820.00   4.992111     0.2044E+00  -2.64953   6.62382
    9860.00   4.993877     0.2012E+00  -2.65622   6.64055
    9900.00   4.995635     0.1982E+00  -2.66287   6.65718
    9940.00   4.997386     0.1952E+00  -2.66955   6.67386
    9980.00   4.999130     0.1922E+00  -2.67615   6.69037
   10020.00   5.000868     0.1893E+00  -2.68274   6.70684
   20000.00   5.301030     0.1318E-01  -3.83991   9.59977
   40000.00   5.602060     0.8638E-03  -5.02355  12.55888
   60000.00   5.778151     0.1731E-03  -5.72176  14.30439
   80000.00   5.903090     0.5510E-04  -6.21876  15.54691
  100000.00   6.000000     0.2265E-04  -6.60496  16.51240
  120000.00   6.079181     0.1094E-04  -6.92086  17.30214
  140000.00   6.146128     0.5913E-05  -7.18816  17.97041
  160000.00   6.204120     0.3468E-05  -7.41984  18.54959
