age =   12.0    [Fe/H] =    0.00

wavele(nm) log wave(A)   Hlam       log(Hlam/Hlam(V))  Hlam(mag(V)) 
      89.50   2.951823     0.1286E-12 -15.08392  37.70979
      90.50   2.956649     0.2089E-12 -14.87339  37.18349
      91.50   2.961421     0.3268E-12 -14.67890  36.69725
      92.50   2.966142     0.1337E-10 -13.06725  32.66812
      93.50   2.970812     0.1871E-10 -12.92117  32.30293
      94.50   2.975432     0.2728E-10 -12.75733  31.89331
      95.50   2.980003     0.4146E-10 -12.57560  31.43900
      96.50   2.984527     0.6099E-10 -12.40794  31.01986
      97.50   2.989005     0.8196E-10 -12.27964  30.69909
      98.50   2.993436     0.1158E-09 -12.12941  30.32352
      99.50   2.997823     0.1585E-09 -11.99310  29.98275
     100.50   3.002166     0.2365E-09 -11.81934  29.54836
     101.50   3.006466     0.3232E-09 -11.68379  29.20948
     102.50   3.010724     0.3780E-09 -11.61579  29.03947
     103.50   3.014940     0.6155E-09 -11.40401  28.51003
     104.50   3.019116     0.8515E-09 -11.26306  28.15765
     105.50   3.023252     0.1092E-08 -11.15485  27.88713
     106.50   3.027350     0.1478E-08 -11.02357  27.55893
     107.50   3.031409     0.2004E-08 -10.89143  27.22856
     108.50   3.035430     0.2702E-08 -10.76161  26.90403
     109.50   3.039414     0.3400E-08 -10.66177  26.65443
     110.50   3.043362     0.1419E-07 -10.04123  25.10308
     111.50   3.047275     0.2412E-07  -9.81094  24.52735
     112.50   3.051152     0.3575E-07  -9.63997  24.09992
     113.50   3.054996     0.5314E-07  -9.46783  23.66958
     114.50   3.058805     0.7130E-07  -9.34013  23.35033
     115.50   3.062582     0.8426E-07  -9.26761  23.16902
     116.50   3.066326     0.1149E-06  -9.13310  22.83274
     117.50   3.070038     0.1487E-06  -9.02079  22.55198
     118.50   3.073718     0.1661E-06  -8.97299  22.43247
     119.50   3.077368     0.1440E-06  -9.03488  22.58721
     120.50   3.080987     0.1603E-06  -8.98840  22.47101
     121.50   3.084576     0.4121E-07  -9.57819  23.94548
     122.50   3.088136     0.2194E-06  -8.85199  22.12997
     123.50   3.091667     0.4243E-06  -8.56558  21.41395
     124.50   3.095169     0.5851E-06  -8.42600  21.06499
     125.50   3.098644     0.7082E-06  -8.34310  20.85776
     126.50   3.102091     0.7670E-06  -8.30847  20.77116
     127.50   3.105510     0.9446E-06  -8.21800  20.54500
     128.50   3.108903     0.1072E-05  -8.16295  20.40738
     129.50   3.112270     0.1308E-05  -8.07678  20.19196
     130.50   3.115611     0.1375E-05  -8.05488  20.13721
     131.50   3.118926     0.1725E-05  -7.95640  19.89100
     132.50   3.122216     0.1804E-05  -7.93701  19.84251
     133.50   3.125481     0.2019E-05  -7.88803  19.72008
     134.50   3.128722     0.2390E-05  -7.81486  19.53716
     135.50   3.131939     0.2793E-05  -7.74713  19.36784
     136.50   3.135133     0.3006E-05  -7.71529  19.28823
     137.50   3.138303     0.3266E-05  -7.67925  19.19812
     138.50   3.141450     0.3610E-05  -7.63577  19.08941
     139.50   3.144574     0.4080E-05  -7.58256  18.95640
     140.50   3.147676     0.4987E-05  -7.49538  18.73844
     141.50   3.150756     0.5695E-05  -7.43771  18.59428
     142.50   3.153815     0.6598E-05  -7.37380  18.43451
     143.50   3.156852     0.7888E-05  -7.29629  18.24072
     144.20   3.158965     0.1022E-04  -7.18379  17.95947
     144.70   3.160469     0.9196E-05  -7.22963  18.07407
     145.50   3.162863     0.1084E-04  -7.15824  17.89560
     146.50   3.165838     0.1398E-04  -7.04764  17.61910
     147.50   3.168792     0.1602E-04  -6.98859  17.47148
     148.50   3.171726     0.1729E-04  -6.95543  17.38857
     149.50   3.174641     0.2272E-04  -6.83692  17.09229
     150.50   3.177536     0.2786E-04  -6.74831  16.87079
     151.20   3.179552     0.2107E-04  -6.86954  17.17386
     151.70   3.180986     0.2705E-04  -6.76104  16.90259
     152.50   3.183270     0.6634E-04  -6.37147  15.92868
     153.50   3.186108     0.1111E-03  -6.14742  15.36854
     154.50   3.188928     0.9134E-04  -6.23258  15.58145
     155.50   3.191730     0.1531E-03  -6.00824  15.02061
     156.50   3.194514     0.1442E-03  -6.03425  15.08562
     157.50   3.197281     0.2744E-03  -5.75484  14.38709
     158.50   3.200029     0.3347E-03  -5.66855  14.17138
     159.50   3.202761     0.3929E-03  -5.59890  13.99725
     160.50   3.205475     0.4214E-03  -5.56854  13.92135
     161.50   3.208173     0.4634E-03  -5.52731  13.81827
     162.50   3.210853     0.5229E-03  -5.47485  13.68711
     163.50   3.213518     0.6158E-03  -5.40379  13.50948
     164.50   3.216166     0.8772E-03  -5.25014  13.12535
     165.50   3.218798     0.5668E-03  -5.43983  13.59957
     166.50   3.221414     0.1018E-02  -5.18532  12.96331
     167.20   3.223236     0.7147E-03  -5.33914  13.34784
     167.70   3.224533     0.2711E-02  -4.76005  11.90013
     168.50   3.226600     0.3061E-02  -4.70734  11.76834
     169.50   3.229170     0.3831E-02  -4.60997  11.52491
     170.50   3.231725     0.4133E-02  -4.57694  11.44235
     171.50   3.234264     0.3947E-02  -4.59698  11.49245
     172.50   3.236789     0.5073E-02  -4.48797  11.21992
     173.50   3.239300     0.6087E-02  -4.40880  11.02201
     174.50   3.241796     0.8399E-02  -4.26899  10.67247
     175.50   3.244277     0.1143E-01  -4.13506  10.33766
     176.50   3.246745     0.1061E-01  -4.16769  10.41924
     177.50   3.249198     0.1166E-01  -4.12660  10.31651
     178.50   3.251638     0.1538E-01  -4.00616  10.01539
     179.50   3.254065     0.1897E-01  -3.91513   9.78782
     180.50   3.256477     0.1997E-01  -3.89281   9.73203
     181.50   3.258877     0.1861E-01  -3.92341   9.80853
     182.50   3.261263     0.2361E-01  -3.82006   9.55015
     183.50   3.263636     0.2469E-01  -3.80068   9.50170
     184.50   3.265996     0.1887E-01  -3.91753   9.79384
     185.50   3.268344     0.2747E-01  -3.75433   9.38583
     186.50   3.270679     0.3270E-01  -3.67870   9.19676
     187.50   3.273001     0.3531E-01  -3.64534   9.11334
     188.50   3.275311     0.3797E-01  -3.61382   9.03455
     189.50   3.277609     0.4978E-01  -3.49617   8.74042
     190.50   3.279895     0.4849E-01  -3.50761   8.76902
     191.50   3.282169     0.5423E-01  -3.45896   8.64741
     192.50   3.284431     0.5418E-01  -3.45940   8.64850
     193.50   3.286681     0.3864E-01  -3.60618   9.01545
     194.50   3.288920     0.7124E-01  -3.34052   8.35131
     195.50   3.291147     0.7484E-01  -3.31909   8.29774
     196.70   3.293804     0.9741E-01  -3.20463   8.01157
     197.60   3.295787     0.9230E-01  -3.22804   8.07009
     198.40   3.297542     0.1108E+00  -3.14876   7.87191
     199.50   3.299943     0.1156E+00  -3.13025   7.82562
     200.50   3.302114     0.1128E+00  -3.14076   7.85190
     201.50   3.304275     0.1241E+00  -3.09936   7.74839
     202.50   3.306425     0.1014E+00  -3.18741   7.96853
     203.50   3.308564     0.1408E+00  -3.04454   7.61134
     204.50   3.310693     0.1633E+00  -2.98025   7.45062
     205.50   3.312812     0.1683E+00  -2.96721   7.41801
     206.50   3.314920     0.1682E+00  -2.96749   7.41873
     207.40   3.316809     0.1835E+00  -2.92949   7.32372
     207.80   3.317646     0.5649E+00  -2.44129   6.10322
     208.50   3.319106     0.7877E+00  -2.29690   5.74226
     209.50   3.321184     0.7203E+00  -2.33571   5.83928
     210.50   3.323252     0.7212E+00  -2.33519   5.83798
     211.50   3.325310     0.8640E+00  -2.25670   5.64174
     212.50   3.327359     0.7539E+00  -2.31593   5.78982
     213.50   3.329398     0.7534E+00  -2.31618   5.79046
     214.50   3.331427     0.1028E+01  -2.18115   5.45288
     215.50   3.333447     0.9672E+00  -2.20770   5.51926
     216.50   3.335458     0.8265E+00  -2.27600   5.69000
     217.50   3.337459     0.8137E+00  -2.28276   5.70690
     218.50   3.339452     0.1207E+01  -2.11162   5.27906
     219.50   3.341434     0.1122E+01  -2.14313   5.35782
     220.50   3.343409     0.1135E+01  -2.13822   5.34555
     221.50   3.345374     0.8114E+00  -2.28401   5.71003
     222.50   3.347330     0.1082E+01  -2.15919   5.39797
     223.50   3.349277     0.1588E+01  -1.99239   4.98097
     224.50   3.351216     0.1514E+01  -2.01310   5.03276
     225.50   3.353147     0.1080E+01  -2.15978   5.39946
     226.50   3.355068     0.9061E+00  -2.23608   5.59020
     227.50   3.356982     0.1008E+01  -2.18967   5.47417
     228.50   3.358886     0.1663E+01  -1.97239   4.93099
     229.50   3.360783     0.1259E+01  -2.09327   5.23317
     230.50   3.362671     0.1665E+01  -1.97179   4.92948
     231.50   3.364551     0.1344E+01  -2.06468   5.16169
     232.50   3.366423     0.1146E+01  -2.13392   5.33481
     233.50   3.368287     0.9985E+00  -2.19389   5.48473
     234.50   3.370143     0.6133E+00  -2.40554   6.01386
     235.50   3.371991     0.1324E+01  -2.07122   5.17806
     236.50   3.373831     0.7326E+00  -2.32837   5.82094
     237.50   3.375664     0.9829E+00  -2.20073   5.50183
     238.50   3.377488     0.5738E+00  -2.43451   6.08628
     239.50   3.379306     0.7414E+00  -2.32318   5.80796
     240.50   3.381115     0.7813E+00  -2.30042   5.75104
     241.50   3.382917     0.8885E+00  -2.24456   5.61141
     242.50   3.384712     0.1732E+01  -1.95471   4.88677
     243.50   3.386499     0.1807E+01  -1.93629   4.84072
     244.50   3.388279     0.2273E+01  -1.83659   4.59148
     245.50   3.390052     0.2507E+01  -1.79416   4.48541
     246.50   3.391817     0.1925E+01  -1.90885   4.77213
     247.50   3.393575     0.1660E+01  -1.97324   4.93309
     248.50   3.395326     0.7011E+00  -2.34748   5.86870
     249.50   3.397071     0.1089E+01  -2.15639   5.39097
     250.50   3.398808     0.1919E+01  -1.91017   4.77543
     251.30   3.400192     0.7324E+00  -2.32851   5.82128
     251.80   3.401056     0.5206E+00  -2.47676   6.19189
     252.50   3.402261     0.6066E+00  -2.41032   6.02580
     253.50   3.403978     0.1367E+01  -2.05739   5.14348
     254.50   3.405688     0.1450E+01  -2.03199   5.07996
     255.50   3.407391     0.3553E+01  -1.64270   4.10675
     256.50   3.409087     0.2358E+01  -1.82064   4.55160
     257.50   3.410777     0.3363E+01  -1.66653   4.16632
     258.50   3.412461     0.2869E+01  -1.73558   4.33895
     259.50   3.414137     0.2539E+01  -1.78859   4.47147
     260.50   3.415808     0.2143E+01  -1.86220   4.65549
     261.50   3.417472     0.1897E+01  -1.91514   4.78785
     262.50   3.419129     0.2770E+01  -1.75073   4.37681
     263.50   3.420781     0.5873E+01  -1.42437   3.56093
     264.50   3.422426     0.7992E+01  -1.29059   3.22649
     265.50   3.424065     0.1259E+02  -1.09313   2.73283
     266.50   3.425697     0.7069E+01  -1.34387   3.35967
     267.50   3.427324     0.8143E+01  -1.28247   3.20618
     268.50   3.428944     0.1007E+02  -1.19006   2.97516
     269.50   3.430559     0.6543E+01  -1.37744   3.44359
     270.50   3.432167     0.8724E+01  -1.25251   3.13129
     271.50   3.433770     0.5803E+01  -1.42955   3.57386
     272.50   3.435366     0.3822E+01  -1.61093   4.02733
     273.50   3.436957     0.5503E+01  -1.45262   3.63156
     274.50   3.438542     0.3004E+01  -1.71549   4.28872
     275.50   3.440122     0.4434E+01  -1.54649   3.86622
     276.50   3.441695     0.6204E+01  -1.40058   3.50145
     277.50   3.443263     0.6524E+01  -1.37870   3.44675
     278.50   3.444825     0.3551E+01  -1.64294   4.10736
     279.50   3.446382     0.1532E+01  -2.00796   5.01989
     280.50   3.447933     0.1902E+01  -1.91414   4.78534
     281.50   3.449478     0.5568E+01  -1.44753   3.61883
     282.50   3.451018     0.8503E+01  -1.26369   3.15922
     283.50   3.452553     0.7611E+01  -1.31181   3.27952
     284.50   3.454082     0.4484E+01  -1.54162   3.85404
     285.50   3.455606     0.2175E+01  -1.85576   4.63940
     286.50   3.457125     0.7041E+01  -1.34559   3.36396
     287.50   3.458638     0.1157E+02  -1.12998   2.82496
     288.50   3.460146     0.1052E+02  -1.17136   2.92841
     289.50   3.461648     0.1444E+02  -1.03380   2.58451
     291.00   3.463893     0.2143E+02  -0.86217   2.15543
     293.00   3.466868     0.2012E+02  -0.88958   2.22395
     295.00   3.469822     0.1991E+02  -0.89424   2.23559
     297.00   3.472756     0.2138E+02  -0.86315   2.15786
     299.00   3.475671     0.2307E+02  -0.83015   2.07538
     301.00   3.478566     0.2332E+02  -0.82554   2.06386
     303.00   3.481443     0.2585E+02  -0.78070   1.95175
     305.00   3.484300     0.2662E+02  -0.76805   1.92012
     307.00   3.487138     0.2610E+02  -0.77653   1.94133
     309.00   3.489959     0.2246E+02  -0.84186   2.10464
     311.00   3.492760     0.2764E+02  -0.75174   1.87934
     313.00   3.495544     0.2439E+02  -0.80607   2.01516
     315.00   3.498311     0.2446E+02  -0.80486   2.01214
     317.00   3.501059     0.2855E+02  -0.73768   1.84420
     319.00   3.503791     0.2407E+02  -0.81177   2.02942
     321.00   3.506505     0.2689E+02  -0.76358   1.90895
     323.00   3.509202     0.2286E+02  -0.83420   2.08549
     325.00   3.511883     0.3392E+02  -0.66277   1.65693
     327.00   3.514548     0.3948E+02  -0.59680   1.49201
     329.00   3.517196     0.3863E+02  -0.60637   1.51591
     331.00   3.519828     0.3508E+02  -0.64816   1.62039
     333.00   3.522444     0.3666E+02  -0.62903   1.57258
     335.00   3.525045     0.3553E+02  -0.64259   1.60646
     337.00   3.527630     0.2483E+02  -0.79833   1.99583
     339.00   3.530200     0.2966E+02  -0.72105   1.80263
     341.00   3.532754     0.3131E+02  -0.69756   1.74391
     343.00   3.535294     0.3411E+02  -0.66037   1.65093
     345.00   3.537819     0.3921E+02  -0.59989   1.49972
     347.00   3.540329     0.4116E+02  -0.57875   1.44689
     349.00   3.542825     0.4609E+02  -0.52965   1.32412
     351.00   3.545307     0.4856E+02  -0.50695   1.26739
     353.00   3.547775     0.4285E+02  -0.56130   1.40325
     355.00   3.550228     0.4772E+02  -0.51458   1.28645
     357.00   3.552668     0.3608E+02  -0.63595   1.58988
     359.00   3.555094     0.3853E+02  -0.60744   1.51860
     361.00   3.557507     0.4816E+02  -0.51055   1.27638
     363.00   3.559907     0.4907E+02  -0.50242   1.25605
     364.00   3.561101     0.4853E+02  -0.50723   1.26808
     365.00   3.562293     0.5113E+02  -0.48454   1.21135
     367.00   3.564666     0.5566E+02  -0.44770   1.11925
     369.00   3.567026     0.4878E+02  -0.50499   1.26247
     371.00   3.569374     0.5079E+02  -0.48748   1.21870
     373.00   3.571709     0.3084E+02  -0.70418   1.76046
     375.00   3.574031     0.3582E+02  -0.63906   1.59766
     377.00   3.576341     0.4933E+02  -0.50015   1.25037
     379.00   3.578639     0.5082E+02  -0.48723   1.21809
     381.00   3.580925     0.4642E+02  -0.52649   1.31623
     383.00   3.583199     0.2414E+02  -0.81051   2.02627
     385.00   3.585461     0.3447E+02  -0.65581   1.63954
     387.00   3.587711     0.3393E+02  -0.66264   1.65660
     389.00   3.589950     0.4592E+02  -0.53122   1.32805
     391.00   3.592177     0.5732E+02  -0.43494   1.08736
     393.00   3.594393     0.2611E+02  -0.77642   1.94104
     395.00   3.596597     0.4873E+02  -0.50541   1.26353
     397.00   3.598790     0.3316E+02  -0.67266   1.68165
     399.00   3.600973     0.7766E+02  -0.30305   0.75764
     401.00   3.603144     0.8666E+02  -0.25543   0.63858
     403.00   3.605305     0.8512E+02  -0.26319   0.65797
     405.00   3.607455     0.8129E+02  -0.28321   0.70803
     407.00   3.609594     0.7584E+02  -0.31336   0.78341
     409.00   3.611723     0.9726E+02  -0.20528   0.51320
     411.00   3.613842     0.9100E+02  -0.23421   0.58552
     413.00   3.615950     0.8749E+02  -0.25127   0.62818
     415.00   3.618048     0.8508E+02  -0.26342   0.65854
     417.00   3.620136     0.8681E+02  -0.25466   0.63665
     419.00   3.622214     0.8473E+02  -0.26519   0.66297
     421.00   3.624282     0.8592E+02  -0.25915   0.64786
     423.00   3.626340     0.8019E+02  -0.28913   0.72283
     425.00   3.628389     0.8734E+02  -0.25204   0.63009
     427.00   3.630428     0.8180E+02  -0.28051   0.70127
     429.00   3.632457     0.7620E+02  -0.31127   0.77819
     431.00   3.634477     0.6573E+02  -0.37549   0.93872
     433.00   3.636488     0.1005E+03  -0.19088   0.47719
     435.00   3.638489     0.1009E+03  -0.18916   0.47290
     437.00   3.640481     0.1097E+03  -0.15318   0.38294
     439.00   3.642465     0.9559E+02  -0.21283   0.53206
     441.00   3.644439     0.1021E+03  -0.18400   0.46001
     443.00   3.646404     0.1115E+03  -0.14578   0.36446
     445.00   3.648360     0.1129E+03  -0.14062   0.35154
     447.00   3.650307     0.1220E+03  -0.10691   0.26728
     449.00   3.652246     0.1260E+03  -0.09300   0.23250
     451.00   3.654176     0.1454E+03  -0.03070   0.07676
     453.00   3.656098     0.1254E+03  -0.09491   0.23728
     455.00   3.658011     0.1326E+03  -0.07073   0.17682
     457.00   3.659916     0.1447E+03  -0.03270   0.08175
     459.00   3.661813     0.1355E+03  -0.06139   0.15348
     461.00   3.663701     0.1403E+03  -0.04629   0.11573
     463.00   3.665581     0.1363E+03  -0.05879   0.14698
     465.00   3.667453     0.1384E+03  -0.05216   0.13041
     467.00   3.669317     0.1454E+03  -0.03053   0.07632
     469.00   3.671173     0.1419E+03  -0.04124   0.10311
     471.00   3.673021     0.1389E+03  -0.05069   0.12672
     473.00   3.674861     0.1436E+03  -0.03601   0.09003
     475.00   3.676694     0.1476E+03  -0.02415   0.06037
     477.00   3.678518     0.1440E+03  -0.03497   0.08742
     479.00   3.680336     0.1455E+03  -0.03044   0.07610
     481.00   3.682145     0.1462E+03  -0.02839   0.07098
     483.00   3.683947     0.1518E+03  -0.01207   0.03017
     485.00   3.685742     0.1447E+03  -0.03263   0.08158
     487.00   3.687529     0.1331E+03  -0.06918   0.17295
     489.00   3.689309     0.1474E+03  -0.02484   0.06211
     491.00   3.691082     0.1483E+03  -0.02198   0.05496
     493.00   3.692847     0.1455E+03  -0.03031   0.07577
     495.00   3.694605     0.1516E+03  -0.01239   0.03099
     497.00   3.696356     0.1454E+03  -0.03078   0.07695
     499.00   3.698101     0.1349E+03  -0.06324   0.15810
     501.00   3.699838     0.1266E+03  -0.09086   0.22715
     503.00   3.701568     0.1359E+03  -0.05987   0.14968
     505.00   3.703291     0.1359E+03  -0.06003   0.15009
     507.00   3.705008     0.1423E+03  -0.03997   0.09993
     509.00   3.706718     0.1341E+03  -0.06568   0.16421
     511.00   3.708421     0.1379E+03  -0.05367   0.13417
     513.00   3.710117     0.1335E+03  -0.06778   0.16946
     515.00   3.711807     0.1285E+03  -0.08446   0.21116
     517.00   3.713490     0.1137E+03  -0.13732   0.34330
     519.00   3.715167     0.1193E+03  -0.11670   0.29176
     521.00   3.716838     0.1316E+03  -0.07414   0.18534
     523.00   3.718502     0.1458E+03  -0.02959   0.07397
     525.00   3.720159     0.1532E+03  -0.00799   0.01997
     527.00   3.721811     0.1329E+03  -0.06973   0.17434
     529.00   3.723456     0.1568E+03   0.00213  -0.00533
     531.00   3.725095     0.1679E+03   0.03169  -0.07922
     533.00   3.726727     0.1458E+03  -0.02960   0.07401
     535.00   3.728354     0.1622E+03   0.01671  -0.04178
     537.00   3.729974     0.1605E+03   0.01233  -0.03083
     539.00   3.731589     0.1569E+03   0.00239  -0.00599
     541.00   3.733197     0.1545E+03  -0.00421   0.01053
     543.00   3.734800     0.1573E+03   0.00336  -0.00840
     545.00   3.736397     0.1605E+03   0.01231  -0.03079
     547.00   3.737987     0.1565E+03   0.00119  -0.00298
     549.00   3.739572     0.1591E+03   0.00838  -0.02094
     551.00   3.741152     0.1560E+03   0.00000   0.00000
     553.00   3.742725     0.1628E+03   0.01831  -0.04577
     555.00   3.744293     0.1660E+03   0.02681  -0.06703
     557.00   3.745855     0.1623E+03   0.01698  -0.04246
     559.00   3.747412     0.1576E+03   0.00440  -0.01099
     561.00   3.748963     0.1634E+03   0.02004  -0.05010
     563.00   3.750508     0.1624E+03   0.01735  -0.04338
     565.00   3.752048     0.1656E+03   0.02593  -0.06483
     567.00   3.753583     0.1616E+03   0.01521  -0.03803
     569.00   3.755112     0.1673E+03   0.03036  -0.07591
     571.00   3.756636     0.1618E+03   0.01566  -0.03916
     573.00   3.758155     0.1765E+03   0.05339  -0.13347
     575.00   3.759668     0.1702E+03   0.03784  -0.09460
     577.00   3.761176     0.1725E+03   0.04348  -0.10869
     579.00   3.762679     0.1655E+03   0.02560  -0.06401
     581.00   3.764176     0.1730E+03   0.04470  -0.11174
     583.00   3.765669     0.1776E+03   0.05618  -0.14045
     585.00   3.767156     0.1705E+03   0.03861  -0.09653
     587.00   3.768638     0.1701E+03   0.03754  -0.09385
     589.00   3.770115     0.1533E+03  -0.00774   0.01936
     591.00   3.771587     0.1674E+03   0.03050  -0.07626
     593.00   3.773055     0.1684E+03   0.03299  -0.08249
     595.00   3.774517     0.1689E+03   0.03430  -0.08574
     597.00   3.775974     0.1726E+03   0.04377  -0.10942
     599.00   3.777427     0.1701E+03   0.03759  -0.09399
     601.00   3.778874     0.1682E+03   0.03246  -0.08116
     603.00   3.780317     0.1733E+03   0.04557  -0.11393
     605.00   3.781755     0.1771E+03   0.05490  -0.13725
     607.00   3.783189     0.1765E+03   0.05363  -0.13406
     609.00   3.784617     0.1705E+03   0.03856  -0.09640
     611.00   3.786041     0.1718E+03   0.04187  -0.10467
     613.00   3.787461     0.1625E+03   0.01751  -0.04377
     615.00   3.788875     0.1667E+03   0.02869  -0.07173
     617.00   3.790285     0.1552E+03  -0.00238   0.00596
     619.00   3.791691     0.1647E+03   0.02340  -0.05850
     621.00   3.793092     0.1628E+03   0.01835  -0.04587
     623.00   3.794488     0.1575E+03   0.00396  -0.00989
     625.00   3.795880     0.1530E+03  -0.00849   0.02122
     627.00   3.797267     0.1611E+03   0.01383  -0.03457
     629.00   3.798651     0.1653E+03   0.02512  -0.06279
     631.00   3.800029     0.1621E+03   0.01662  -0.04156
     633.00   3.801404     0.1655E+03   0.02545  -0.06363
     635.00   3.802774     0.1669E+03   0.02920  -0.07299
     637.00   3.804139     0.1667E+03   0.02882  -0.07204
     639.00   3.805501     0.1703E+03   0.03807  -0.09517
     641.00   3.806858     0.1671E+03   0.02975  -0.07439
     643.00   3.808211     0.1691E+03   0.03481  -0.08703
     645.00   3.809560     0.1685E+03   0.03348  -0.08370
     647.00   3.810904     0.1684E+03   0.03309  -0.08271
     649.00   3.812245     0.1654E+03   0.02527  -0.06318
     651.00   3.813581     0.1719E+03   0.04203  -0.10507
     653.00   3.814913     0.1728E+03   0.04436  -0.11091
     655.00   3.816241     0.1688E+03   0.03413  -0.08533
     657.00   3.817565     0.1608E+03   0.01296  -0.03240
     659.00   3.818885     0.1684E+03   0.03306  -0.08265
     661.00   3.820201     0.1699E+03   0.03689  -0.09224
     663.00   3.821513     0.1672E+03   0.02998  -0.07494
     665.00   3.822822     0.1654E+03   0.02525  -0.06312
     667.00   3.824126     0.1606E+03   0.01257  -0.03143
     669.00   3.825426     0.1620E+03   0.01623  -0.04058
     671.00   3.826723     0.1545E+03  -0.00438   0.01096
     673.00   3.828015     0.1582E+03   0.00584  -0.01459
     675.00   3.829304     0.1552E+03  -0.00229   0.00571
     677.00   3.830589     0.1562E+03   0.00058  -0.00145
     679.00   3.831870     0.1547E+03  -0.00376   0.00939
     681.00   3.833147     0.1559E+03  -0.00026   0.00065
     683.00   3.834421     0.1587E+03   0.00725  -0.01812
     685.00   3.835690     0.1550E+03  -0.00281   0.00702
     687.00   3.836957     0.1582E+03   0.00605  -0.01512
     689.00   3.838219     0.1619E+03   0.01611  -0.04028
     691.00   3.839478     0.1635E+03   0.02022  -0.05055
     693.00   3.840733     0.1630E+03   0.01908  -0.04769
     695.00   3.841985     0.1640E+03   0.02153  -0.05382
     697.00   3.843233     0.1679E+03   0.03176  -0.07940
     699.00   3.844477     0.1688E+03   0.03420  -0.08549
     701.00   3.845718     0.1682E+03   0.03253  -0.08132
     703.00   3.846955     0.1699E+03   0.03704  -0.09261
     705.00   3.848189     0.1663E+03   0.02756  -0.06890
     707.00   3.849419     0.1570E+03   0.00272  -0.00680
     709.00   3.850646     0.1487E+03  -0.02084   0.05209
     711.00   3.851870     0.1436E+03  -0.03596   0.08989
     713.00   3.853090     0.1396E+03  -0.04840   0.12101
     715.00   3.854306     0.1392E+03  -0.04956   0.12391
     717.00   3.855519     0.1417E+03  -0.04200   0.10499
     719.00   3.856729     0.1390E+03  -0.05010   0.12525
     721.00   3.857935     0.1436E+03  -0.03596   0.08990
     723.00   3.859138     0.1485E+03  -0.02140   0.05350
     725.00   3.860338     0.1510E+03  -0.01433   0.03582
     727.00   3.861534     0.1534E+03  -0.00744   0.01860
     729.00   3.862728     0.1541E+03  -0.00554   0.01386
     731.00   3.863917     0.1619E+03   0.01610  -0.04025
     733.00   3.865104     0.1624E+03   0.01729  -0.04322
     735.00   3.866287     0.1679E+03   0.03176  -0.07939
     737.00   3.867467     0.1743E+03   0.04803  -0.12008
     739.00   3.868644     0.1710E+03   0.03974  -0.09935
     741.00   3.869818     0.1740E+03   0.04727  -0.11818
     743.00   3.870989     0.1792E+03   0.06009  -0.15021
     745.00   3.872156     0.1785E+03   0.05846  -0.14616
     747.00   3.873321     0.1846E+03   0.07291  -0.18226
     749.00   3.874482     0.1839E+03   0.07128  -0.17821
     751.00   3.875640     0.1852E+03   0.07443  -0.18607
     753.00   3.876795     0.1888E+03   0.08285  -0.20713
     755.00   3.877947     0.1905E+03   0.08658  -0.21644
     757.00   3.879096     0.1902E+03   0.08604  -0.21509
     759.00   3.880242     0.1828E+03   0.06866  -0.17165
     761.00   3.881385     0.1756E+03   0.05121  -0.12802
     763.00   3.882524     0.1680E+03   0.03203  -0.08008
     765.00   3.883662     0.1598E+03   0.01031  -0.02577
     767.00   3.884795     0.1500E+03  -0.01713   0.04284
     769.00   3.885926     0.1531E+03  -0.00822   0.02055
     771.00   3.887054     0.1502E+03  -0.01648   0.04121
     773.00   3.888180     0.1506E+03  -0.01536   0.03841
     775.00   3.889302     0.1495E+03  -0.01873   0.04682
     777.00   3.890421     0.1521E+03  -0.01109   0.02772
     779.00   3.891537     0.1527E+03  -0.00928   0.02321
     781.00   3.892651     0.1535E+03  -0.00711   0.01778
     783.00   3.893762     0.1536E+03  -0.00673   0.01683
     785.00   3.894870     0.1519E+03  -0.01180   0.02949
     787.00   3.895975     0.1552E+03  -0.00231   0.00578
     789.00   3.897077     0.1550E+03  -0.00278   0.00696
     791.00   3.898176     0.1509E+03  -0.01450   0.03625
     793.00   3.899273     0.1527E+03  -0.00931   0.02328
     795.00   3.900367     0.1530E+03  -0.00847   0.02117
     797.00   3.901458     0.1576E+03   0.00436  -0.01089
     799.00   3.902547     0.1581E+03   0.00560  -0.01400
     801.00   3.903632     0.1622E+03   0.01678  -0.04194
     803.00   3.904716     0.1637E+03   0.02091  -0.05226
     805.00   3.905796     0.1635E+03   0.02030  -0.05076
     807.00   3.906873     0.1688E+03   0.03422  -0.08555
     809.00   3.907948     0.1681E+03   0.03241  -0.08103
     811.00   3.909021     0.1702E+03   0.03778  -0.09444
     813.00   3.910090     0.1761E+03   0.05250  -0.13126
     815.00   3.911158     0.1790E+03   0.05960  -0.14901
     817.00   3.912222     0.1802E+03   0.06249  -0.15623
     819.00   3.913284     0.1768E+03   0.05419  -0.13548
     821.00   3.914343     0.1700E+03   0.03732  -0.09331
     823.00   3.915400     0.1706E+03   0.03871  -0.09677
     825.00   3.916454     0.1700E+03   0.03720  -0.09300
     827.00   3.917506     0.1708E+03   0.03932  -0.09830
     829.00   3.918555     0.1687E+03   0.03383  -0.08458
     831.00   3.919601     0.1634E+03   0.02003  -0.05009
     833.00   3.920645     0.1621E+03   0.01642  -0.04105
     835.00   3.921686     0.1614E+03   0.01478  -0.03696
     837.00   3.922725     0.1626E+03   0.01776  -0.04440
     839.00   3.923762     0.1581E+03   0.00569  -0.01422
     841.00   3.924796     0.1628E+03   0.01849  -0.04622
     843.00   3.925828     0.1574E+03   0.00385  -0.00962
     845.00   3.926857     0.1497E+03  -0.01814   0.04535
     847.00   3.927883     0.1489E+03  -0.02037   0.05092
     849.00   3.928908     0.1520E+03  -0.01141   0.02853
     851.00   3.929929     0.1454E+03  -0.03055   0.07636
     853.00   3.930949     0.1516E+03  -0.01265   0.03163
     855.00   3.931966     0.1475E+03  -0.02434   0.06086
     857.00   3.932981     0.1566E+03   0.00149  -0.00373
     859.00   3.933993     0.1552E+03  -0.00238   0.00594
     861.00   3.935003     0.1581E+03   0.00570  -0.01425
     863.00   3.936011     0.1616E+03   0.01528  -0.03820
     865.00   3.937016     0.1631E+03   0.01926  -0.04816
     867.00   3.938019     0.1540E+03  -0.00561   0.01401
     869.00   3.939020     0.1610E+03   0.01367  -0.03417
     871.00   3.940018     0.1661E+03   0.02710  -0.06776
     873.00   3.941014     0.1675E+03   0.03081  -0.07702
     875.00   3.942008     0.1667E+03   0.02863  -0.07158
     877.00   3.943000     0.1686E+03   0.03359  -0.08399
     879.00   3.943989     0.1721E+03   0.04258  -0.10645
     881.00   3.944976     0.1694E+03   0.03580  -0.08951
     883.00   3.945961     0.1716E+03   0.04124  -0.10311
     885.00   3.946943     0.1684E+03   0.03309  -0.08273
     887.00   3.947924     0.1611E+03   0.01381  -0.03452
     889.00   3.948902     0.1617E+03   0.01559  -0.03898
     891.00   3.949878     0.1638E+03   0.02099  -0.05248
     893.00   3.950851     0.1616E+03   0.01520  -0.03801
     895.00   3.951823     0.1624E+03   0.01748  -0.04370
     897.00   3.952792     0.1630E+03   0.01900  -0.04750
     899.00   3.953760     0.1634E+03   0.02014  -0.05034
     901.00   3.954725     0.1601E+03   0.01104  -0.02761
     903.00   3.955688     0.1663E+03   0.02775  -0.06938
     905.00   3.956649     0.1715E+03   0.04105  -0.10263
     907.00   3.957607     0.1721E+03   0.04246  -0.10616
     909.00   3.958564     0.1697E+03   0.03652  -0.09129
     911.00   3.959518     0.1717E+03   0.04151  -0.10379
     913.00   3.960471     0.1741E+03   0.04747  -0.11868
     915.00   3.961421     0.1731E+03   0.04501  -0.11252
     917.00   3.962369     0.1728E+03   0.04428  -0.11070
     919.00   3.963315     0.1741E+03   0.04744  -0.11861
     921.00   3.964260     0.1677E+03   0.03119  -0.07796
     923.00   3.965202     0.1660E+03   0.02674  -0.06686
     925.00   3.966142     0.1639E+03   0.02139  -0.05348
     927.00   3.967080     0.1661E+03   0.02712  -0.06779
     929.00   3.968016     0.1624E+03   0.01730  -0.04325
     931.00   3.968950     0.1632E+03   0.01945  -0.04862
     933.00   3.969882     0.1641E+03   0.02179  -0.05448
     935.00   3.970812     0.1639E+03   0.02124  -0.05309
     937.00   3.971740     0.1605E+03   0.01227  -0.03066
     939.00   3.972666     0.1640E+03   0.02165  -0.05411
     941.00   3.973590     0.1618E+03   0.01571  -0.03929
     943.00   3.974512     0.1648E+03   0.02382  -0.05955
     945.00   3.975432     0.1630E+03   0.01893  -0.04732
     947.00   3.976350     0.1665E+03   0.02818  -0.07046
     949.00   3.977266     0.1670E+03   0.02959  -0.07397
     951.00   3.978180     0.1633E+03   0.01987  -0.04967
     953.00   3.979093     0.1653E+03   0.02492  -0.06231
     955.00   3.980003     0.1633E+03   0.01975  -0.04936
     957.00   3.980912     0.1647E+03   0.02349  -0.05873
     959.00   3.981819     0.1669E+03   0.02929  -0.07323
     961.00   3.982723     0.1652E+03   0.02473  -0.06181
     963.00   3.983626     0.1664E+03   0.02795  -0.06987
     965.00   3.984527     0.1641E+03   0.02195  -0.05487
     967.00   3.985426     0.1645E+03   0.02290  -0.05724
     969.00   3.986324     0.1662E+03   0.02744  -0.06859
     971.00   3.987219     0.1640E+03   0.02168  -0.05420
     973.00   3.988113     0.1626E+03   0.01780  -0.04449
     975.00   3.989005     0.1622E+03   0.01690  -0.04225
     977.00   3.989895     0.1627E+03   0.01827  -0.04567
     979.00   3.990783     0.1611E+03   0.01379  -0.03446
     981.00   3.991669     0.1643E+03   0.02232  -0.05579
     983.00   3.992553     0.1630E+03   0.01888  -0.04720
     985.00   3.993436     0.1638E+03   0.02108  -0.05270
     987.00   3.994317     0.1627E+03   0.01813  -0.04533
     989.00   3.995196     0.1624E+03   0.01741  -0.04352
     991.00   3.996074     0.1622E+03   0.01671  -0.04177
     993.00   3.996949     0.1628E+03   0.01840  -0.04599
     995.00   3.997823     0.1632E+03   0.01939  -0.04846
     997.00   3.998695     0.1632E+03   0.01955  -0.04887
     999.00   3.999566     0.1628E+03   0.01832  -0.04580
    1003.00   4.001301     0.1626E+03   0.01785  -0.04464
    1008.00   4.003461     0.1615E+03   0.01499  -0.03747
    1013.00   4.005610     0.1630E+03   0.01883  -0.04708
    1018.00   4.007748     0.1613E+03   0.01432  -0.03580
    1023.00   4.009875     0.1616E+03   0.01516  -0.03791
    1028.00   4.011993     0.1617E+03   0.01546  -0.03864
    1033.00   4.014100     0.1601E+03   0.01108  -0.02769
    1038.00   4.016197     0.1593E+03   0.00885  -0.02214
    1043.00   4.018284     0.1598E+03   0.01042  -0.02605
    1048.00   4.020361     0.1588E+03   0.00757  -0.01893
    1053.00   4.022429     0.1578E+03   0.00489  -0.01223
    1058.00   4.024486     0.1556E+03  -0.00117   0.00293
    1063.00   4.026533     0.1549E+03  -0.00330   0.00824
    1068.00   4.028571     0.1536E+03  -0.00674   0.01685
    1073.00   4.030600     0.1541E+03  -0.00551   0.01378
    1078.00   4.032619     0.1530E+03  -0.00859   0.02148
    1083.00   4.034628     0.1510E+03  -0.01423   0.03557
    1088.00   4.036629     0.1502E+03  -0.01669   0.04173
    1093.00   4.038620     0.1496E+03  -0.01822   0.04555
    1098.00   4.040603     0.1475E+03  -0.02449   0.06123
    1103.00   4.042576     0.1469E+03  -0.02629   0.06573
    1108.00   4.044539     0.1448E+03  -0.03259   0.08147
    1113.00   4.046495     0.1447E+03  -0.03287   0.08218
    1118.00   4.048442     0.1439E+03  -0.03517   0.08792
    1123.00   4.050380     0.1440E+03  -0.03487   0.08718
    1128.00   4.052309     0.1432E+03  -0.03724   0.09310
    1133.00   4.054230     0.1431E+03  -0.03748   0.09370
    1138.00   4.056142     0.1425E+03  -0.03932   0.09830
    1143.00   4.058046     0.1416E+03  -0.04203   0.10509
    1148.00   4.059942     0.1426E+03  -0.03898   0.09746
    1153.00   4.061830     0.1425E+03  -0.03932   0.09829
    1158.00   4.063708     0.1414E+03  -0.04282   0.10704
    1163.00   4.065579     0.1401E+03  -0.04690   0.11725
    1168.00   4.067443     0.1400E+03  -0.04699   0.11748
    1173.00   4.069298     0.1404E+03  -0.04592   0.11479
    1178.00   4.071145     0.1385E+03  -0.05190   0.12975
    1183.00   4.072985     0.1374E+03  -0.05518   0.13795
    1188.00   4.074817     0.1361E+03  -0.05946   0.14864
    1193.00   4.076640     0.1376E+03  -0.05466   0.13664
    1198.00   4.078457     0.1345E+03  -0.06463   0.16157
    1203.00   4.080266     0.1362E+03  -0.05909   0.14772
    1208.00   4.082067     0.1353E+03  -0.06203   0.15507
    1213.00   4.083861     0.1354E+03  -0.06175   0.15438
    1218.00   4.085648     0.1355E+03  -0.06145   0.15364
    1223.00   4.087426     0.1348E+03  -0.06366   0.15914
    1228.00   4.089198     0.1340E+03  -0.06605   0.16512
    1233.00   4.090963     0.1334E+03  -0.06813   0.17032
    1238.00   4.092721     0.1330E+03  -0.06929   0.17323
    1243.00   4.094471     0.1315E+03  -0.07421   0.18553
    1248.00   4.096214     0.1316E+03  -0.07409   0.18523
    1253.00   4.097951     0.1307E+03  -0.07705   0.19263
    1258.00   4.099681     0.1302E+03  -0.07876   0.19690
    1263.00   4.101403     0.1298E+03  -0.08010   0.20024
    1268.00   4.103119     0.1289E+03  -0.08284   0.20710
    1273.00   4.104828     0.1288E+03  -0.08319   0.20797
    1278.00   4.106531     0.1289E+03  -0.08304   0.20760
    1283.00   4.108227     0.1259E+03  -0.09316   0.23289
    1288.00   4.109916     0.1271E+03  -0.08900   0.22250
    1293.00   4.111598     0.1261E+03  -0.09247   0.23119
    1298.00   4.113275     0.1269E+03  -0.08988   0.22470
    1303.00   4.114944     0.1257E+03  -0.09393   0.23482
    1308.00   4.116608     0.1258E+03  -0.09358   0.23396
    1313.00   4.118265     0.1239E+03  -0.10021   0.25052
    1318.00   4.119915     0.1234E+03  -0.10175   0.25438
    1323.00   4.121560     0.1234E+03  -0.10198   0.25494
    1328.00   4.123198     0.1218E+03  -0.10767   0.26919
    1333.00   4.124830     0.1219E+03  -0.10719   0.26796
    1338.00   4.126456     0.1209E+03  -0.11064   0.27660
    1343.00   4.128076     0.1210E+03  -0.11042   0.27605
    1348.00   4.129690     0.1202E+03  -0.11349   0.28372
    1353.00   4.131298     0.1196E+03  -0.11563   0.28908
    1358.00   4.132900     0.1181E+03  -0.12105   0.30263
    1363.00   4.134496     0.1179E+03  -0.12188   0.30471
    1368.00   4.136086     0.1185E+03  -0.11952   0.29880
    1373.00   4.137671     0.1190E+03  -0.11759   0.29399
    1378.00   4.139249     0.1190E+03  -0.11781   0.29453
    1383.00   4.140822     0.1189E+03  -0.11788   0.29471
    1388.00   4.142389     0.1179E+03  -0.12171   0.30426
    1393.00   4.143951     0.1093E+03  -0.15479   0.38697
    1398.00   4.145507     0.1100E+03  -0.15200   0.38001
    1403.00   4.147058     0.1092E+03  -0.15493   0.38733
    1408.00   4.148602     0.1099E+03  -0.15219   0.38048
    1413.00   4.150142     0.1091E+03  -0.15528   0.38819
    1418.00   4.151676     0.1098E+03  -0.15254   0.38134
    1423.00   4.153205     0.1091E+03  -0.15533   0.38833
    1428.00   4.154728     0.1083E+03  -0.15875   0.39687
    1433.00   4.156246     0.1101E+03  -0.15156   0.37890
    1438.00   4.157759     0.1106E+03  -0.14933   0.37333
    1443.00   4.159266     0.1090E+03  -0.15562   0.38905
    1448.00   4.160769     0.1107E+03  -0.14916   0.37291
    1453.00   4.162266     0.1100E+03  -0.15183   0.37959
    1457.00   4.163460     0.1105E+03  -0.14975   0.37437
    1462.00   4.164948     0.1059E+03  -0.16840   0.42099
    1468.00   4.166726     0.1066E+03  -0.16562   0.41406
    1473.00   4.168202     0.1061E+03  -0.16765   0.41913
    1478.00   4.169674     0.1069E+03  -0.16409   0.41022
    1483.00   4.171141     0.1075E+03  -0.16167   0.40418
    1488.00   4.172603     0.1071E+03  -0.16340   0.40851
    1493.00   4.174060     0.1093E+03  -0.15476   0.38689
    1498.00   4.175512     0.1089E+03  -0.15604   0.39009
    1503.00   4.176959     0.1081E+03  -0.15941   0.39852
    1508.00   4.178401     0.1086E+03  -0.15760   0.39400
    1513.00   4.179839     0.1102E+03  -0.15100   0.37749
    1518.00   4.181272     0.1107E+03  -0.14915   0.37288
    1523.00   4.182700     0.1108E+03  -0.14889   0.37222
    1528.00   4.184123     0.1115E+03  -0.14603   0.36508
    1533.00   4.185542     0.1113E+03  -0.14674   0.36685
    1538.00   4.186956     0.1090E+03  -0.15566   0.38916
    1543.00   4.188366     0.1102E+03  -0.15118   0.37796
    1548.00   4.189771     0.1106E+03  -0.14959   0.37398
    1553.00   4.191172     0.1102E+03  -0.15113   0.37782
    1558.00   4.192567     0.1068E+03  -0.16459   0.41148
    1563.00   4.193959     0.1081E+03  -0.15936   0.39841
    1568.00   4.195346     0.1081E+03  -0.15929   0.39822
    1573.00   4.196729     0.1101E+03  -0.15155   0.37887
    1578.00   4.198107     0.1006E+03  -0.19054   0.47634
    1583.00   4.199481     0.1042E+03  -0.17528   0.43819
    1588.00   4.200850     0.1048E+03  -0.17276   0.43189
    1593.00   4.202216     0.1077E+03  -0.16110   0.40276
    1598.00   4.203577     0.1102E+03  -0.15086   0.37715
    1605.00   4.205475     0.1046E+03  -0.17391   0.43478
    1615.00   4.208173     0.1078E+03  -0.16066   0.40164
    1625.00   4.210854     0.1033E+03  -0.17901   0.44753
    1635.00   4.213518     0.1069E+03  -0.16409   0.41023
    1645.00   4.216166     0.1028E+03  -0.18127   0.45317
    1655.00   4.218798     0.1046E+03  -0.17357   0.43392
    1665.00   4.221415     0.1015E+03  -0.18693   0.46733
    1675.00   4.224015     0.1022E+03  -0.18399   0.45997
    1685.00   4.226600     0.1022E+03  -0.18385   0.45964
    1695.00   4.229170     0.9995E+02  -0.19345   0.48363
    1705.00   4.231725     0.9855E+02  -0.19957   0.49891
    1715.00   4.234264     0.9651E+02  -0.20868   0.52169
    1725.00   4.236789     0.9471E+02  -0.21683   0.54208
    1735.00   4.239300     0.9200E+02  -0.22943   0.57357
    1745.00   4.241796     0.9078E+02  -0.23526   0.58814
    1755.00   4.244277     0.8962E+02  -0.24082   0.60204
    1765.00   4.246745     0.8751E+02  -0.25117   0.62793
    1775.00   4.249198     0.8558E+02  -0.26088   0.65220
    1785.00   4.251638     0.8439E+02  -0.26693   0.66733
    1795.00   4.254065     0.8248E+02  -0.27689   0.69223
    1805.00   4.256477     0.8075E+02  -0.28611   0.71527
    1815.00   4.258877     0.7933E+02  -0.29382   0.73454
    1825.00   4.261263     0.7816E+02  -0.30027   0.75069
    1835.00   4.263636     0.7699E+02  -0.30681   0.76702
    1845.00   4.265996     0.7554E+02  -0.31507   0.78767
    1855.00   4.268344     0.7479E+02  -0.31941   0.79853
    1865.00   4.270679     0.7314E+02  -0.32907   0.82268
    1875.00   4.273001     0.7166E+02  -0.33796   0.84491
    1885.00   4.275311     0.7089E+02  -0.34263   0.85658
    1895.00   4.277609     0.6860E+02  -0.35693   0.89232
    1905.00   4.279895     0.6842E+02  -0.35804   0.89510
    1915.00   4.282169     0.6697E+02  -0.36737   0.91842
    1925.00   4.284431     0.6577E+02  -0.37523   0.93806
    1935.00   4.286681     0.6403E+02  -0.38686   0.96715
    1945.00   4.288919     0.6250E+02  -0.39738   0.99344
    1955.00   4.291147     0.6189E+02  -0.40160   1.00400
    1965.00   4.293363     0.6066E+02  -0.41034   1.02585
    1975.00   4.295567     0.5919E+02  -0.42096   1.05239
    1985.00   4.297760     0.5831E+02  -0.42750   1.06876
    1995.00   4.299943     0.5752E+02  -0.43342   1.08356
    2005.00   4.302114     0.5700E+02  -0.43735   1.09339
    2015.00   4.304275     0.5620E+02  -0.44353   1.10882
    2025.00   4.306425     0.5496E+02  -0.45319   1.13297
    2035.00   4.308564     0.5420E+02  -0.45925   1.14811
    2045.00   4.310693     0.5382E+02  -0.46225   1.15563
    2055.00   4.312812     0.5296E+02  -0.46929   1.17322
    2065.00   4.314920     0.5210E+02  -0.47638   1.19096
    2075.00   4.317018     0.5148E+02  -0.48159   1.20397
    2085.00   4.319106     0.5073E+02  -0.48797   1.21992
    2095.00   4.321184     0.4986E+02  -0.49548   1.23870
    2105.00   4.323252     0.4946E+02  -0.49896   1.24741
    2115.00   4.325311     0.4865E+02  -0.50619   1.26546
    2125.00   4.327359     0.4793E+02  -0.51265   1.28162
    2135.00   4.329398     0.4742E+02  -0.51728   1.29320
    2145.00   4.331428     0.4670E+02  -0.52392   1.30981
    2155.00   4.333447     0.4600E+02  -0.53050   1.32625
    2165.00   4.335458     0.4515E+02  -0.53858   1.34644
    2175.00   4.337460     0.4452E+02  -0.54464   1.36161
    2185.00   4.339452     0.4396E+02  -0.55015   1.37537
    2195.00   4.341434     0.4339E+02  -0.55583   1.38957
    2205.00   4.343409     0.4243E+02  -0.56554   1.41386
    2215.00   4.345374     0.4217E+02  -0.56819   1.42048
    2225.00   4.347330     0.4126E+02  -0.57772   1.44430
    2235.00   4.349277     0.4071E+02  -0.58354   1.45885
    2245.00   4.351216     0.4012E+02  -0.58993   1.47482
    2255.00   4.353147     0.3959E+02  -0.59568   1.48920
    2265.00   4.355068     0.3881E+02  -0.60428   1.51069
    2275.00   4.356981     0.3846E+02  -0.60821   1.52053
    2285.00   4.358886     0.3771E+02  -0.61680   1.54201
    2295.00   4.360783     0.3013E+02  -0.71419   1.78547
    2305.00   4.362671     0.3351E+02  -0.66803   1.67007
    2315.00   4.364551     0.3343E+02  -0.66914   1.67286
    2325.00   4.366423     0.2802E+02  -0.74584   1.86461
    2335.00   4.368287     0.3074E+02  -0.70553   1.76383
    2345.00   4.370143     0.2813E+02  -0.74409   1.86022
    2355.00   4.371991     0.2602E+02  -0.77787   1.94468
    2365.00   4.373831     0.2832E+02  -0.74110   1.85274
    2375.00   4.375664     0.2636E+02  -0.77229   1.93073
    2385.00   4.377488     0.2451E+02  -0.80398   2.00995
    2395.00   4.379306     0.2628E+02  -0.77361   1.93402
    2405.00   4.381115     0.2512E+02  -0.79321   1.98303
    2415.00   4.382917     0.2311E+02  -0.82941   2.07353
    2425.00   4.384712     0.2456E+02  -0.80297   2.00742
    2435.00   4.386499     0.2331E+02  -0.82565   2.06413
    2445.00   4.388279     0.2343E+02  -0.82348   2.05870
    2455.00   4.390052     0.2255E+02  -0.84012   2.10029
    2465.00   4.391817     0.2244E+02  -0.84218   2.10544
    2475.00   4.393575     0.2182E+02  -0.85446   2.13615
    2485.00   4.395327     0.1892E+02  -0.91642   2.29104
    2495.00   4.397071     0.1801E+02  -0.93773   2.34434
    2505.00   4.398808     0.1831E+02  -0.93053   2.32632
    2515.00   4.400538     0.1751E+02  -0.94988   2.37471
    2525.00   4.402262     0.1796E+02  -0.93893   2.34732
    2535.00   4.403978     0.1803E+02  -0.93723   2.34307
    2545.00   4.405688     0.1788E+02  -0.94083   2.35208
    2555.00   4.407391     0.1791E+02  -0.94019   2.35048
    2565.00   4.409087     0.1810E+02  -0.93555   2.33888
    2575.00   4.410777     0.1829E+02  -0.93102   2.32755
    2585.00   4.412460     0.1791E+02  -0.94014   2.35035
    2595.00   4.414137     0.1799E+02  -0.93816   2.34539
    2605.00   4.415808     0.1801E+02  -0.93778   2.34446
    2615.00   4.417472     0.1775E+02  -0.94411   2.36027
    2625.00   4.419129     0.1751E+02  -0.95003   2.37508
    2635.00   4.420781     0.1751E+02  -0.94984   2.37461
    2645.00   4.422426     0.1737E+02  -0.95334   2.38336
    2655.00   4.424065     0.1718E+02  -0.95833   2.39581
    2665.00   4.425697     0.1693E+02  -0.96457   2.41143
    2675.00   4.427324     0.1707E+02  -0.96094   2.40235
    2685.00   4.428945     0.1690E+02  -0.96525   2.41314
    2695.00   4.430559     0.1662E+02  -0.97253   2.43133
    2705.00   4.432167     0.1661E+02  -0.97298   2.43246
    2715.00   4.433770     0.1647E+02  -0.97664   2.44160
    2725.00   4.435367     0.1637E+02  -0.97914   2.44785
    2735.00   4.436957     0.1612E+02  -0.98577   2.46442
    2745.00   4.438542     0.1609E+02  -0.98679   2.46698
    2755.00   4.440122     0.1599E+02  -0.98944   2.47361
    2765.00   4.441695     0.1580E+02  -0.99455   2.48638
    2775.00   4.443263     0.1561E+02  -0.99981   2.49953
    2785.00   4.444825     0.1555E+02  -1.00152   2.50379
    2795.00   4.446382     0.1548E+02  -1.00350   2.50874
    2805.00   4.447933     0.1533E+02  -1.00781   2.51952
    2815.00   4.449478     0.1514E+02  -1.01305   2.53264
    2825.00   4.451018     0.1504E+02  -1.01610   2.54026
    2835.00   4.452553     0.1495E+02  -1.01871   2.54676
    2845.00   4.454082     0.1478E+02  -1.02351   2.55878
    2855.00   4.455606     0.1464E+02  -1.02760   2.56900
    2865.00   4.457125     0.1452E+02  -1.03140   2.57849
    2875.00   4.458638     0.1438E+02  -1.03534   2.58834
    2885.00   4.460146     0.1426E+02  -1.03904   2.59759
    2895.00   4.461648     0.1414E+02  -1.04290   2.60726
    2905.00   4.463146     0.1400E+02  -1.04715   2.61788
    2915.00   4.464639     0.1388E+02  -1.05071   2.62679
    2925.00   4.466126     0.1369E+02  -1.05694   2.64235
    2935.00   4.467608     0.1363E+02  -1.05862   2.64656
    2945.00   4.469085     0.1348E+02  -1.06344   2.65859
    2955.00   4.470557     0.1337E+02  -1.06721   2.66804
    2965.00   4.472025     0.1327E+02  -1.07047   2.67618
    2975.00   4.473487     0.1315E+02  -1.07442   2.68605
    2985.00   4.474944     0.1301E+02  -1.07904   2.69759
    2995.00   4.476397     0.1288E+02  -1.08332   2.70830
    3005.00   4.477844     0.1277E+02  -1.08696   2.71741
    3015.00   4.479287     0.1270E+02  -1.08956   2.72390
    3025.00   4.480725     0.1258E+02  -1.09366   2.73415
    3035.00   4.482159     0.1246E+02  -1.09779   2.74446
    3045.00   4.483587     0.1240E+02  -1.09989   2.74972
    3055.00   4.485011     0.1229E+02  -1.10369   2.75923
    3065.00   4.486430     0.1219E+02  -1.10727   2.76817
    3075.00   4.487845     0.1211E+02  -1.11005   2.77513
    3085.00   4.489255     0.1199E+02  -1.11459   2.78646
    3095.00   4.490661     0.1191E+02  -1.11747   2.79369
    3105.00   4.492062     0.1183E+02  -1.12022   2.80055
    3115.00   4.493458     0.1168E+02  -1.12577   2.81441
    3125.00   4.494850     0.1162E+02  -1.12805   2.82014
    3135.00   4.496238     0.1152E+02  -1.13165   2.82914
    3145.00   4.497621     0.1142E+02  -1.13550   2.83876
    3155.00   4.499000     0.1131E+02  -1.13981   2.84952
    3165.00   4.500374     0.1120E+02  -1.14394   2.85986
    3175.00   4.501744     0.1112E+02  -1.14699   2.86748
    3185.00   4.503109     0.1102E+02  -1.15088   2.87719
    3195.00   4.504471     0.1094E+02  -1.15432   2.88580
    3210.00   4.506505     0.1078E+02  -1.16054   2.90136
    3230.00   4.509202     0.1058E+02  -1.16873   2.92184
    3250.00   4.511883     0.1039E+02  -1.17675   2.94187
    3270.00   4.514548     0.1019E+02  -1.18521   2.96302
    3290.00   4.517196     0.9979E+01  -1.19413   2.98533
    3310.00   4.519828     0.9798E+01  -1.20209   3.00522
    3330.00   4.522444     0.9600E+01  -1.21094   3.02736
    3350.00   4.525045     0.9429E+01  -1.21879   3.04697
    3370.00   4.527630     0.9237E+01  -1.22770   3.06924
    3390.00   4.530200     0.9045E+01  -1.23684   3.09211
    3410.00   4.532754     0.8856E+01  -1.24602   3.11504
    3430.00   4.535294     0.8697E+01  -1.25389   3.13471
    3450.00   4.537819     0.8527E+01  -1.26246   3.15616
    3470.00   4.540329     0.8351E+01  -1.27149   3.17873
    3490.00   4.542826     0.8186E+01  -1.28016   3.20041
    3510.00   4.545307     0.8027E+01  -1.28866   3.22166
    3530.00   4.547775     0.7856E+01  -1.29804   3.24511
    3550.00   4.550228     0.7708E+01  -1.30631   3.26577
    3570.00   4.552669     0.7552E+01  -1.31517   3.28792
    3590.00   4.555095     0.7405E+01  -1.32372   3.30930
    3610.00   4.557508     0.7269E+01  -1.33176   3.32941
    3630.00   4.559907     0.7124E+01  -1.34053   3.35132
    3650.00   4.562293     0.6973E+01  -1.34983   3.37458
    3670.00   4.564666     0.6833E+01  -1.35864   3.39660
    3690.00   4.567026     0.6683E+01  -1.36828   3.42069
    3710.00   4.569374     0.6547E+01  -1.37722   3.44304
    3730.00   4.571709     0.6437E+01  -1.38456   3.46140
    3750.00   4.574031     0.6290E+01  -1.39457   3.48643
    3770.00   4.576342     0.6191E+01  -1.40149   3.50372
    3790.00   4.578639     0.6068E+01  -1.41019   3.52548
    3810.00   4.580925     0.5956E+01  -1.41825   3.54563
    3830.00   4.583199     0.5850E+01  -1.42610   3.56525
    3850.00   4.585461     0.5740E+01  -1.43430   3.58576
    3870.00   4.587711     0.5617E+01  -1.44372   3.60930
    3890.00   4.589950     0.5516E+01  -1.45157   3.62893
    3910.00   4.592176     0.5417E+01  -1.45948   3.64870
    3930.00   4.594393     0.5315E+01  -1.46774   3.66934
    3950.00   4.596597     0.5201E+01  -1.47714   3.69285
    3970.00   4.598790     0.5109E+01  -1.48491   3.71227
    3990.00   4.600973     0.4997E+01  -1.49449   3.73623
    4010.00   4.603145     0.4916E+01  -1.50166   3.75416
    4030.00   4.605305     0.4833E+01  -1.50904   3.77261
    4050.00   4.607455     0.4736E+01  -1.51786   3.79465
    4070.00   4.609594     0.4653E+01  -1.52546   3.81365
    4090.00   4.611723     0.4570E+01  -1.53336   3.83340
    4110.00   4.613842     0.4492E+01  -1.54081   3.85204
    4130.00   4.615950     0.4418E+01  -1.54801   3.87003
    4150.00   4.618048     0.4339E+01  -1.55589   3.88973
    4170.00   4.620136     0.4265E+01  -1.56336   3.90840
    4190.00   4.622214     0.4188E+01  -1.57119   3.92797
    4210.00   4.624282     0.4112E+01  -1.57915   3.94787
    4230.00   4.626340     0.4057E+01  -1.58501   3.96252
    4250.00   4.628389     0.3982E+01  -1.59313   3.98284
    4270.00   4.630428     0.3921E+01  -1.59981   3.99954
    4290.00   4.632457     0.3759E+01  -1.61817   4.04543
    4310.00   4.634478     0.3592E+01  -1.63786   4.09465
    4330.00   4.636488     0.3573E+01  -1.64016   4.10040
    4350.00   4.638489     0.3436E+01  -1.65713   4.14283
    4370.00   4.640481     0.3350E+01  -1.66820   4.17050
    4390.00   4.642465     0.3283E+01  -1.67696   4.19239
    4410.00   4.644439     0.3171E+01  -1.69210   4.23025
    4430.00   4.646404     0.3123E+01  -1.69872   4.24680
    4450.00   4.648360     0.3068E+01  -1.70640   4.26600
    4470.00   4.650308     0.2974E+01  -1.71987   4.29967
    4490.00   4.652246     0.2960E+01  -1.72193   4.30482
    4510.00   4.654177     0.2892E+01  -1.73204   4.33009
    4530.00   4.656098     0.2825E+01  -1.74228   4.35569
    4550.00   4.658011     0.2804E+01  -1.74550   4.36374
    4570.00   4.659916     0.2768E+01  -1.75110   4.37774
    4590.00   4.661813     0.2691E+01  -1.76328   4.40821
    4610.00   4.663701     0.2684E+01  -1.76439   4.41098
    4630.00   4.665581     0.2635E+01  -1.77245   4.43112
    4650.00   4.667453     0.2605E+01  -1.77735   4.44336
    4670.00   4.669317     0.2584E+01  -1.78096   4.45240
    4690.00   4.671173     0.2537E+01  -1.78889   4.47223
    4710.00   4.673021     0.2495E+01  -1.79608   4.49020
    4730.00   4.674861     0.2489E+01  -1.79729   4.49322
    4750.00   4.676694     0.2437E+01  -1.80630   4.51575
    4770.00   4.678518     0.2405E+01  -1.81213   4.53033
    4790.00   4.680336     0.2380E+01  -1.81674   4.54184
    4810.00   4.682145     0.2327E+01  -1.82643   4.56607
    4830.00   4.683947     0.2324E+01  -1.82706   4.56766
    4850.00   4.685741     0.2283E+01  -1.83468   4.58670
    4870.00   4.687529     0.2242E+01  -1.84260   4.60649
    4890.00   4.689309     0.2211E+01  -1.84856   4.62139
    4910.00   4.691082     0.2184E+01  -1.85402   4.63505
    4930.00   4.692847     0.2150E+01  -1.86071   4.65177
    4950.00   4.694605     0.2116E+01  -1.86774   4.66935
    4970.00   4.696356     0.2097E+01  -1.87158   4.67896
    4990.00   4.698101     0.2066E+01  -1.87805   4.69512
    5010.00   4.699838     0.2041E+01  -1.88337   4.70843
    5030.00   4.701568     0.2014E+01  -1.88915   4.72287
    5050.00   4.703291     0.1975E+01  -1.89760   4.74399
    5070.00   4.705008     0.1957E+01  -1.90163   4.75408
    5090.00   4.706717     0.1932E+01  -1.90724   4.76809
    5110.00   4.708421     0.1900E+01  -1.91458   4.78644
    5130.00   4.710117     0.1884E+01  -1.91814   4.79534
    5150.00   4.711807     0.1852E+01  -1.92548   4.81370
    5170.00   4.713490     0.1840E+01  -1.92835   4.82089
    5190.00   4.715167     0.1809E+01  -1.93582   4.83954
    5210.00   4.716838     0.1789E+01  -1.94070   4.85176
    5230.00   4.718502     0.1760E+01  -1.94782   4.86955
    5250.00   4.720160     0.1743E+01  -1.95184   4.87960
    5270.00   4.721810     0.1731E+01  -1.95494   4.88734
    5290.00   4.723455     0.1696E+01  -1.96386   4.90965
    5310.00   4.725095     0.1674E+01  -1.96943   4.92357
    5330.00   4.726727     0.1658E+01  -1.97370   4.93425
    5350.00   4.728354     0.1638E+01  -1.97901   4.94752
    5370.00   4.729974     0.1619E+01  -1.98403   4.96007
    5390.00   4.731589     0.1600E+01  -1.98913   4.97282
    5410.00   4.733197     0.1581E+01  -1.99441   4.98604
    5430.00   4.734800     0.1554E+01  -2.00180   5.00450
    5450.00   4.736397     0.1543E+01  -2.00475   5.01187
    5470.00   4.737988     0.1520E+01  -2.01151   5.02878
    5490.00   4.739573     0.1503E+01  -2.01629   5.04072
    5510.00   4.741152     0.1483E+01  -2.02200   5.05501
    5530.00   4.742725     0.1480E+01  -2.02294   5.05736
    5550.00   4.744293     0.1447E+01  -2.03289   5.08223
    5570.00   4.745855     0.1439E+01  -2.03504   5.08759
    5590.00   4.747412     0.1417E+01  -2.04190   5.10474
    5610.00   4.748963     0.1404E+01  -2.04578   5.11444
    5630.00   4.750508     0.1381E+01  -2.05302   5.13256
    5650.00   4.752048     0.1371E+01  -2.05610   5.14024
    5670.00   4.753583     0.1355E+01  -2.06139   5.15348
    5690.00   4.755112     0.1333E+01  -2.06851   5.17129
    5710.00   4.756636     0.1324E+01  -2.07126   5.17815
    5730.00   4.758155     0.1308E+01  -2.07675   5.19186
    5750.00   4.759668     0.1292E+01  -2.08194   5.20484
    5770.00   4.761176     0.1275E+01  -2.08761   5.21902
    5790.00   4.762679     0.1265E+01  -2.09130   5.22825
    5810.00   4.764176     0.1246E+01  -2.09770   5.24425
    5830.00   4.765669     0.1232E+01  -2.10248   5.25620
    5850.00   4.767156     0.1218E+01  -2.10742   5.26855
    5870.00   4.768638     0.1201E+01  -2.11379   5.28446
    5890.00   4.770115     0.1188E+01  -2.11853   5.29633
    5910.00   4.771587     0.1175E+01  -2.12326   5.30816
    5930.00   4.773055     0.1162E+01  -2.12803   5.32006
    5950.00   4.774517     0.1146E+01  -2.13391   5.33477
    5970.00   4.775974     0.1136E+01  -2.13798   5.34496
    5990.00   4.777427     0.1122E+01  -2.14310   5.35775
    6010.00   4.778874     0.1109E+01  -2.14819   5.37047
    6030.00   4.780317     0.1096E+01  -2.15333   5.38331
    6050.00   4.781755     0.1081E+01  -2.15929   5.39823
    6070.00   4.783189     0.1069E+01  -2.16419   5.41048
    6090.00   4.784617     0.1057E+01  -2.16932   5.42330
    6110.00   4.786041     0.1043E+01  -2.17480   5.43700
    6130.00   4.787460     0.1033E+01  -2.17918   5.44795
    6150.00   4.788875     0.1022E+01  -2.18392   5.45979
    6170.00   4.790285     0.1011E+01  -2.18842   5.47106
    6190.00   4.791691     0.9992E+00  -2.19358   5.48396
    6210.00   4.793092     0.9885E+00  -2.19825   5.49561
    6230.00   4.794488     0.9757E+00  -2.20390   5.50974
    6250.00   4.795880     0.9634E+00  -2.20945   5.52362
    6270.00   4.797267     0.9524E+00  -2.21441   5.53603
    6290.00   4.798651     0.9423E+00  -2.21904   5.54761
    6310.00   4.800029     0.9311E+00  -2.22425   5.56063
    6330.00   4.801404     0.9224E+00  -2.22831   5.57079
    6350.00   4.802773     0.9109E+00  -2.23375   5.58438
    6370.00   4.804139     0.9023E+00  -2.23789   5.59472
    6390.00   4.805501     0.8908E+00  -2.24347   5.60867
    6420.00   4.807535     0.8761E+00  -2.25070   5.62676
    6460.00   4.810232     0.8560E+00  -2.26078   5.65195
    6500.00   4.812913     0.8371E+00  -2.27045   5.67613
    6540.00   4.815578     0.8185E+00  -2.28020   5.70051
    6580.00   4.818226     0.8010E+00  -2.28959   5.72397
    6620.00   4.820858     0.7830E+00  -2.29945   5.74862
    6660.00   4.823474     0.7660E+00  -2.30898   5.77245
    6700.00   4.826075     0.7495E+00  -2.31846   5.79614
    6740.00   4.828660     0.7329E+00  -2.32819   5.82048
    6780.00   4.831230     0.7172E+00  -2.33761   5.84403
    6820.00   4.833784     0.7016E+00  -2.34712   5.86781
    6860.00   4.836324     0.6869E+00  -2.35635   5.89087
    6900.00   4.838849     0.6721E+00  -2.36583   5.91458
    6940.00   4.841359     0.6578E+00  -2.37512   5.93781
    6980.00   4.843855     0.6440E+00  -2.38435   5.96089
    7020.00   4.846337     0.6302E+00  -2.39377   5.98442
    7060.00   4.848804     0.6172E+00  -2.40279   6.00698
    7100.00   4.851258     0.6043E+00  -2.41198   6.02995
    7140.00   4.853698     0.5918E+00  -2.42103   6.05258
    7180.00   4.856124     0.5795E+00  -2.43017   6.07541
    7220.00   4.858537     0.5677E+00  -2.43915   6.09788
    7260.00   4.860937     0.5560E+00  -2.44820   6.12050
    7300.00   4.863323     0.5447E+00  -2.45709   6.14274
    7340.00   4.865696     0.5335E+00  -2.46610   6.16524
    7380.00   4.868056     0.5228E+00  -2.47486   6.18716
    7420.00   4.870404     0.5120E+00  -2.48395   6.20989
    7460.00   4.872739     0.5017E+00  -2.49277   6.23193
    7500.00   4.875061     0.4918E+00  -2.50140   6.25351
    7540.00   4.877371     0.4820E+00  -2.51019   6.27548
    7580.00   4.879669     0.4728E+00  -2.51856   6.29641
    7620.00   4.881955     0.4635E+00  -2.52718   6.31796
    7660.00   4.884229     0.4545E+00  -2.53575   6.33937
    7700.00   4.886491     0.4455E+00  -2.54435   6.36088
    7740.00   4.888741     0.4370E+00  -2.55278   6.38195
    7780.00   4.890980     0.4286E+00  -2.56121   6.40302
    7820.00   4.893207     0.4203E+00  -2.56964   6.42410
    7860.00   4.895422     0.4123E+00  -2.57800   6.44500
    7900.00   4.897627     0.4045E+00  -2.58634   6.46585
    7940.00   4.899820     0.3968E+00  -2.59464   6.48659
    7980.00   4.902003     0.3894E+00  -2.60287   6.50717
    8020.00   4.904174     0.3819E+00  -2.61123   6.52808
    8060.00   4.906335     0.3748E+00  -2.61940   6.54851
    8100.00   4.908485     0.3679E+00  -2.62745   6.56862
    8140.00   4.910625     0.3611E+00  -2.63563   6.58907
    8180.00   4.912753     0.3545E+00  -2.64360   6.60900
    8220.00   4.914872     0.3480E+00  -2.65161   6.62902
    8260.00   4.916980     0.3417E+00  -2.65963   6.64907
    8300.00   4.919078     0.3355E+00  -2.66758   6.66894
    8340.00   4.921166     0.3293E+00  -2.67562   6.68905
    8380.00   4.923244     0.3234E+00  -2.68352   6.70879
    8420.00   4.925312     0.3177E+00  -2.69124   6.72811
    8460.00   4.927370     0.3120E+00  -2.69911   6.74776
    8500.00   4.929419     0.3065E+00  -2.70687   6.76717
    8540.00   4.931458     0.3011E+00  -2.71459   6.78648
    8580.00   4.933487     0.2958E+00  -2.72228   6.80569
    8620.00   4.935507     0.2906E+00  -2.72995   6.82487
    8660.00   4.937518     0.2856E+00  -2.73755   6.84388
    8700.00   4.939519     0.2806E+00  -2.74518   6.86294
    8740.00   4.941511     0.2757E+00  -2.75275   6.88189
    8780.00   4.943495     0.2710E+00  -2.76031   6.90079
    8820.00   4.945469     0.2663E+00  -2.76790   6.91975
    8860.00   4.947433     0.2617E+00  -2.77536   6.93839
    8900.00   4.949390     0.2573E+00  -2.78284   6.95711
    8940.00   4.951338     0.2530E+00  -2.79018   6.97545
    8980.00   4.953277     0.2486E+00  -2.79771   6.99428
    9020.00   4.955207     0.2445E+00  -2.80492   7.01230
    9060.00   4.957129     0.2405E+00  -2.81220   7.03050
    9100.00   4.959042     0.2363E+00  -2.81974   7.04934
    9140.00   4.960946     0.2325E+00  -2.82684   7.06711
    9180.00   4.962843     0.2286E+00  -2.83407   7.08517
    9220.00   4.964731     0.2249E+00  -2.84117   7.10292
    9260.00   4.966611     0.2212E+00  -2.84836   7.12091
    9300.00   4.968483     0.2176E+00  -2.85549   7.13873
    9340.00   4.970347     0.2141E+00  -2.86262   7.15656
    9380.00   4.972203     0.2106E+00  -2.86969   7.17421
    9420.00   4.974051     0.2072E+00  -2.87674   7.19186
    9460.00   4.975891     0.2039E+00  -2.88381   7.20953
    9500.00   4.977724     0.2006E+00  -2.89080   7.22700
    9540.00   4.979548     0.1975E+00  -2.89776   7.24440
    9580.00   4.981365     0.1943E+00  -2.90469   7.26172
    9620.00   4.983175     0.1913E+00  -2.91162   7.27904
    9660.00   4.984977     0.1883E+00  -2.91848   7.29621
    9700.00   4.986772     0.1853E+00  -2.92533   7.31334
    9740.00   4.988559     0.1823E+00  -2.93240   7.33099
    9780.00   4.990339     0.1795E+00  -2.93906   7.34764
    9820.00   4.992111     0.1768E+00  -2.94577   7.36443
    9860.00   4.993877     0.1741E+00  -2.95253   7.38132
    9900.00   4.995635     0.1714E+00  -2.95924   7.39809
    9940.00   4.997386     0.1688E+00  -2.96598   7.41495
    9980.00   4.999130     0.1662E+00  -2.97265   7.43161
   10020.00   5.000868     0.1637E+00  -2.97929   7.44824
   20000.00   5.301030     0.1120E-01  -4.14397  10.35993
   40000.00   5.602060     0.7269E-03  -5.33175  13.32936
   60000.00   5.778151     0.1451E-03  -6.03164  15.07909
   80000.00   5.903090     0.4608E-04  -6.52968  16.32420
  100000.00   6.000000     0.1891E-04  -6.91663  17.29157
  120000.00   6.079181     0.9122E-05  -7.23313  18.08282
  140000.00   6.146128     0.4924E-05  -7.50092  18.75231
  160000.00   6.204120     0.2886E-05  -7.73301  19.33253
