age =   17.0    [Fe/H] =    0.00

wavele(nm) log wave(A)   Hlam       log(Hlam/Hlam(V))  Hlam(mag(V)) 
      89.50   2.951823     0.8090E-13 -15.15005  37.87511
      90.50   2.956649     0.1315E-12 -14.93916  37.34790
      91.50   2.961421     0.2058E-12 -14.74459  36.86147
      92.50   2.966142     0.3646E-11 -13.49615  33.74036
      93.50   2.970812     0.5116E-11 -13.34903  33.37259
      94.50   2.975432     0.7612E-11 -13.17650  32.94125
      95.50   2.980003     0.1176E-10 -12.98763  32.46909
      96.50   2.984527     0.1777E-10 -12.80839  32.02097
      97.50   2.989005     0.2406E-10 -12.67674  31.69185
      98.50   2.993436     0.3463E-10 -12.51853  31.29632
      99.50   2.997823     0.4812E-10 -12.37569  30.93923
     100.50   3.002166     0.7242E-10 -12.19812  30.49531
     101.50   3.006466     0.1004E-09 -12.05620  30.14050
     102.50   3.010724     0.1165E-09 -11.99160  29.97900
     103.50   3.014940     0.1966E-09 -11.76435  29.41089
     104.50   3.019116     0.2771E-09 -11.61538  29.03845
     105.50   3.023252     0.3510E-09 -11.51267  28.78167
     106.50   3.027350     0.4902E-09 -11.36756  28.41891
     107.50   3.031409     0.6688E-09 -11.23269  28.08171
     108.50   3.035430     0.9120E-09 -11.09799  27.74497
     109.50   3.039414     0.1142E-08 -11.00043  27.50107
     110.50   3.043362     0.2880E-08 -10.59865  26.49663
     111.50   3.047275     0.4399E-08 -10.41464  26.03661
     112.50   3.051152     0.6362E-08 -10.25439  25.63599
     113.50   3.054996     0.9455E-08 -10.08230  25.20576
     114.50   3.058805     0.1271E-07  -9.95383  24.88458
     115.50   3.062582     0.1546E-07  -9.86880  24.67199
     116.50   3.066326     0.2088E-07  -9.73832  24.34580
     117.50   3.070038     0.2737E-07  -9.62075  24.05186
     118.50   3.073718     0.3155E-07  -9.55902  23.89754
     119.50   3.077368     0.3069E-07  -9.57101  23.92752
     120.50   3.080987     0.3475E-07  -9.51707  23.79268
     121.50   3.084576     0.1253E-07  -9.96018  24.90044
     122.50   3.088136     0.4927E-07  -9.36536  23.41339
     123.50   3.091667     0.8680E-07  -9.11945  22.79862
     124.50   3.095169     0.1138E-06  -9.00167  22.50419
     125.50   3.098644     0.1367E-06  -8.92230  22.30576
     126.50   3.102091     0.1542E-06  -8.87003  22.17508
     127.50   3.105510     0.1877E-06  -8.78443  21.96107
     128.50   3.108903     0.2114E-06  -8.73284  21.83210
     129.50   3.112270     0.2582E-06  -8.64594  21.61486
     130.50   3.115611     0.2818E-06  -8.60801  21.52002
     131.50   3.118926     0.3521E-06  -8.51125  21.27813
     132.50   3.122216     0.3736E-06  -8.48560  21.21401
     133.50   3.125481     0.4228E-06  -8.43189  21.07972
     134.50   3.128722     0.5079E-06  -8.35222  20.88054
     135.50   3.131939     0.6070E-06  -8.27482  20.68705
     136.50   3.135133     0.6630E-06  -8.23645  20.59113
     137.50   3.138303     0.7354E-06  -8.19142  20.47856
     138.50   3.141450     0.8236E-06  -8.14224  20.35559
     139.50   3.144574     0.9413E-06  -8.08424  20.21059
     140.50   3.147676     0.1164E-05  -7.99184  19.97960
     141.50   3.150756     0.1351E-05  -7.92732  19.81830
     142.50   3.153815     0.1585E-05  -7.85792  19.64479
     143.50   3.156852     0.1914E-05  -7.77592  19.43981
     144.20   3.158965     0.2442E-05  -7.67030  19.17576
     144.70   3.160469     0.2255E-05  -7.70482  19.26205
     145.50   3.162863     0.2655E-05  -7.63388  19.08469
     146.50   3.165838     0.3428E-05  -7.52292  18.80729
     147.50   3.168792     0.3964E-05  -7.45989  18.64972
     148.50   3.171726     0.4334E-05  -7.42108  18.55269
     149.50   3.174641     0.5646E-05  -7.30622  18.26556
     150.50   3.177536     0.6945E-05  -7.21633  18.04081
     151.20   3.179552     0.5518E-05  -7.31616  18.29040
     151.70   3.180986     0.6946E-05  -7.21625  18.04063
     152.50   3.183270     0.1713E-04  -6.82429  17.06071
     153.50   3.186108     0.2937E-04  -6.59012  16.47529
     154.50   3.188928     0.2410E-04  -6.67593  16.68983
     155.50   3.191730     0.4126E-04  -6.44243  16.10608
     156.50   3.194514     0.3916E-04  -6.46514  16.16285
     157.50   3.197281     0.8011E-04  -6.15429  15.38571
     158.50   3.200029     0.9790E-04  -6.06720  15.16800
     159.50   3.202761     0.1157E-03  -5.99467  14.98668
     160.50   3.205475     0.1237E-03  -5.96551  14.91377
     161.50   3.208173     0.1359E-03  -5.92479  14.81197
     162.50   3.210853     0.1540E-03  -5.87058  14.67645
     163.50   3.213518     0.1861E-03  -5.78820  14.47050
     164.50   3.216166     0.2689E-03  -5.62832  14.07081
     165.50   3.218798     0.1796E-03  -5.80366  14.50916
     166.50   3.221414     0.3186E-03  -5.55473  13.88684
     167.20   3.223236     0.2222E-03  -5.71130  14.27824
     167.70   3.224533     0.8844E-03  -5.11132  12.77829
     168.50   3.226600     0.9976E-03  -5.05902  12.64756
     169.50   3.229170     0.1265E-02  -4.95579  12.38948
     170.50   3.231725     0.1360E-02  -4.92448  12.31120
     171.50   3.234264     0.1278E-02  -4.95151  12.37876
     172.50   3.236789     0.1690E-02  -4.83012  12.07530
     173.50   3.239300     0.2026E-02  -4.75131  11.87827
     174.50   3.241796     0.2838E-02  -4.60500  11.51249
     175.50   3.244277     0.3826E-02  -4.47522  11.18805
     176.50   3.246745     0.3646E-02  -4.49612  11.24029
     177.50   3.249198     0.3903E-02  -4.46654  11.16635
     178.50   3.251638     0.5255E-02  -4.33742  10.84356
     179.50   3.254065     0.6217E-02  -4.26442  10.66106
     180.50   3.256477     0.6900E-02  -4.21913  10.54782
     181.50   3.258877     0.6486E-02  -4.24600  10.61499
     182.50   3.261263     0.8374E-02  -4.13506  10.33764
     183.50   3.263636     0.8718E-02  -4.11758  10.29394
     184.50   3.265996     0.6751E-02  -4.22859  10.57146
     185.50   3.268344     0.9583E-02  -4.07646  10.19116
     186.50   3.270679     0.1135E-01  -4.00291  10.00729
     187.50   3.273001     0.1234E-01  -3.96659   9.91648
     188.50   3.275311     0.1334E-01  -3.93273   9.83183
     189.50   3.277609     0.1763E-01  -3.81179   9.52948
     190.50   3.279895     0.1723E-01  -3.82168   9.55420
     191.50   3.282169     0.1950E-01  -3.76803   9.42008
     192.50   3.284431     0.1994E-01  -3.75833   9.39581
     193.50   3.286681     0.1425E-01  -3.90431   9.76078
     194.50   3.288920     0.2579E-01  -3.64651   9.11627
     195.50   3.291147     0.2749E-01  -3.61883   9.04707
     196.70   3.293804     0.3553E-01  -3.50741   8.76852
     197.60   3.295787     0.3481E-01  -3.51633   8.79083
     198.40   3.297542     0.4013E-01  -3.45447   8.63617
     199.50   3.299943     0.4130E-01  -3.44206   8.60516
     200.50   3.302114     0.4076E-01  -3.44777   8.61944
     201.50   3.304275     0.4535E-01  -3.40136   8.50340
     202.50   3.306425     0.3734E-01  -3.48577   8.71442
     203.50   3.308564     0.5123E-01  -3.34844   8.37109
     204.50   3.310693     0.5914E-01  -3.28611   8.21528
     205.50   3.312812     0.6242E-01  -3.26266   8.15666
     206.50   3.314920     0.6272E-01  -3.26060   8.15150
     207.40   3.316809     0.6782E-01  -3.22663   8.06659
     207.80   3.317646     0.1826E+00  -2.79658   6.99144
     208.50   3.319106     0.2454E+00  -2.66804   6.67009
     209.50   3.321184     0.2278E+00  -2.70036   6.75089
     210.50   3.323252     0.2334E+00  -2.68995   6.72488
     211.50   3.325310     0.2819E+00  -2.60787   6.51968
     212.50   3.327359     0.2520E+00  -2.65663   6.64158
     213.50   3.329398     0.2621E+00  -2.63948   6.59870
     214.50   3.331427     0.3444E+00  -2.52087   6.30217
     215.50   3.333447     0.3160E+00  -2.55831   6.39577
     216.50   3.335458     0.2811E+00  -2.60919   6.52296
     217.50   3.337459     0.2733E+00  -2.62136   6.55339
     218.50   3.339452     0.4005E+00  -2.45535   6.13837
     219.50   3.341434     0.3791E+00  -2.47923   6.19808
     220.50   3.343409     0.3919E+00  -2.46480   6.16200
     221.50   3.345374     0.2926E+00  -2.59171   6.47928
     222.50   3.347330     0.3881E+00  -2.46906   6.17264
     223.50   3.349277     0.5746E+00  -2.29864   5.74660
     224.50   3.351216     0.5540E+00  -2.31446   5.78615
     225.50   3.353147     0.4108E+00  -2.44435   6.11087
     226.50   3.355068     0.3353E+00  -2.53254   6.33134
     227.50   3.356982     0.3716E+00  -2.48791   6.21977
     228.50   3.358886     0.6192E+00  -2.26611   5.66529
     229.50   3.360783     0.4755E+00  -2.38084   5.95210
     230.50   3.362671     0.6025E+00  -2.27802   5.69505
     231.50   3.364551     0.5187E+00  -2.34310   5.85775
     232.50   3.366423     0.4671E+00  -2.38853   5.97133
     233.50   3.368287     0.4418E+00  -2.41275   6.03189
     234.50   3.370143     0.2828E+00  -2.60645   6.51613
     235.50   3.371991     0.5415E+00  -2.32434   5.81086
     236.50   3.373831     0.3354E+00  -2.53240   6.33100
     237.50   3.375664     0.4321E+00  -2.42235   6.05588
     238.50   3.377488     0.2797E+00  -2.61129   6.52822
     239.50   3.379306     0.3505E+00  -2.51333   6.28333
     240.50   3.381115     0.3818E+00  -2.47613   6.19032
     241.50   3.382917     0.3955E+00  -2.46080   6.15200
     242.50   3.384712     0.7259E+00  -2.19707   5.49267
     243.50   3.386499     0.7710E+00  -2.17091   5.42727
     244.50   3.388279     0.9714E+00  -2.07057   5.17642
     245.50   3.390052     0.1072E+01  -2.02773   5.06933
     246.50   3.391817     0.8015E+00  -2.15405   5.38513
     247.50   3.393575     0.7008E+00  -2.21237   5.53093
     248.50   3.395326     0.2895E+00  -2.59631   6.49077
     249.50   3.397071     0.4521E+00  -2.40273   6.00681
     250.50   3.398808     0.7875E+00  -2.16170   5.40425
     251.30   3.400192     0.3435E+00  -2.52206   6.30516
     251.80   3.401056     0.2436E+00  -2.67130   6.67826
     252.50   3.402261     0.2815E+00  -2.60843   6.52108
     253.50   3.403978     0.6503E+00  -2.24485   5.61211
     254.50   3.405688     0.6768E+00  -2.22752   5.56879
     255.50   3.407391     0.1745E+01  -1.81620   4.54050
     256.50   3.409087     0.1148E+01  -1.99802   4.99505
     257.50   3.410777     0.1684E+01  -1.83155   4.57887
     258.50   3.412461     0.1455E+01  -1.89503   4.73757
     259.50   3.414137     0.1319E+01  -1.93765   4.84412
     260.50   3.415808     0.1149E+01  -1.99775   4.99437
     261.50   3.417472     0.1018E+01  -2.05019   5.12548
     262.50   3.419129     0.1470E+01  -1.89059   4.72649
     263.50   3.420781     0.3171E+01  -1.55675   3.89188
     264.50   3.422426     0.4195E+01  -1.43523   3.58807
     265.50   3.424065     0.7045E+01  -1.21012   3.02529
     266.50   3.425697     0.3825E+01  -1.47533   3.68832
     267.50   3.427324     0.4325E+01  -1.42194   3.55485
     268.50   3.428944     0.5535E+01  -1.31486   3.28714
     269.50   3.430559     0.3400E+01  -1.52655   3.81639
     270.50   3.432167     0.4733E+01  -1.38288   3.45721
     271.50   3.433770     0.3078E+01  -1.56977   3.92442
     272.50   3.435366     0.1867E+01  -1.78675   4.46686
     273.50   3.436957     0.2792E+01  -1.61211   4.03028
     274.50   3.438542     0.1663E+01  -1.83715   4.59288
     275.50   3.440122     0.2440E+01  -1.67054   4.17634
     276.50   3.441695     0.3431E+01  -1.52255   3.80637
     277.50   3.443263     0.3606E+01  -1.50100   3.75251
     278.50   3.444825     0.1995E+01  -1.75796   4.39489
     279.50   3.446382     0.9014E+00  -2.10307   5.25767
     280.50   3.447933     0.1111E+01  -2.01217   5.03043
     281.50   3.449478     0.3070E+01  -1.57080   3.92700
     282.50   3.451018     0.4479E+01  -1.40680   3.51699
     283.50   3.452553     0.3788E+01  -1.47952   3.69880
     284.50   3.454082     0.2104E+01  -1.73485   4.33713
     285.50   3.455606     0.1021E+01  -2.04906   5.12264
     286.50   3.457125     0.3275E+01  -1.54271   3.85678
     287.50   3.458638     0.5920E+01  -1.28564   3.21409
     288.50   3.460146     0.5715E+01  -1.30093   3.25234
     289.50   3.461648     0.8307E+01  -1.13851   2.84627
     291.00   3.463893     0.1301E+02  -0.94357   2.35892
     293.00   3.466868     0.1236E+02  -0.96604   2.41511
     295.00   3.469822     0.1222E+02  -0.97076   2.42689
     297.00   3.472756     0.1306E+02  -0.94215   2.35537
     299.00   3.475671     0.1433E+02  -0.90169   2.25424
     301.00   3.478566     0.1434E+02  -0.90130   2.25326
     303.00   3.481443     0.1630E+02  -0.84572   2.11430
     305.00   3.484300     0.1675E+02  -0.83385   2.08462
     307.00   3.487138     0.1646E+02  -0.84142   2.10354
     309.00   3.489959     0.1363E+02  -0.92353   2.30883
     311.00   3.492760     0.1754E+02  -0.81403   2.03508
     313.00   3.495544     0.1508E+02  -0.87955   2.19888
     315.00   3.498311     0.1541E+02  -0.87017   2.17542
     317.00   3.501059     0.1827E+02  -0.79636   1.99089
     319.00   3.503791     0.1522E+02  -0.87558   2.18895
     321.00   3.506505     0.1693E+02  -0.82942   2.07356
     323.00   3.509202     0.1447E+02  -0.89757   2.24392
     325.00   3.511883     0.2216E+02  -0.71232   1.78079
     327.00   3.514548     0.2599E+02  -0.64312   1.60781
     329.00   3.517196     0.2557E+02  -0.65017   1.62542
     331.00   3.519828     0.2275E+02  -0.70095   1.75236
     333.00   3.522444     0.2393E+02  -0.67899   1.69748
     335.00   3.525045     0.2304E+02  -0.69551   1.73878
     337.00   3.527630     0.1551E+02  -0.86740   2.16850
     339.00   3.530200     0.1879E+02  -0.78404   1.96010
     341.00   3.532754     0.2002E+02  -0.75651   1.89127
     343.00   3.535294     0.2223E+02  -0.71104   1.77760
     345.00   3.537819     0.2589E+02  -0.64485   1.61214
     347.00   3.540329     0.2741E+02  -0.62009   1.55023
     349.00   3.542825     0.3105E+02  -0.56590   1.41475
     351.00   3.545307     0.3290E+02  -0.54080   1.35201
     353.00   3.547775     0.2867E+02  -0.60050   1.50124
     355.00   3.550228     0.3182E+02  -0.55530   1.38826
     357.00   3.552668     0.2360E+02  -0.68502   1.71254
     359.00   3.555094     0.2559E+02  -0.64996   1.62489
     361.00   3.557507     0.3294E+02  -0.54024   1.35060
     363.00   3.559907     0.3358E+02  -0.53195   1.32988
     364.00   3.561101     0.3305E+02  -0.53876   1.34689
     365.00   3.562293     0.3448E+02  -0.52045   1.30112
     367.00   3.564666     0.3817E+02  -0.47628   1.19071
     369.00   3.567026     0.3286E+02  -0.54127   1.35317
     371.00   3.569374     0.3383E+02  -0.52871   1.32178
     373.00   3.571709     0.1906E+02  -0.77785   1.94464
     375.00   3.574031     0.2246E+02  -0.70648   1.76621
     377.00   3.576341     0.3254E+02  -0.54556   1.36391
     379.00   3.578639     0.3349E+02  -0.53305   1.33262
     381.00   3.580925     0.2979E+02  -0.58386   1.45966
     383.00   3.583199     0.1459E+02  -0.89393   2.23482
     385.00   3.585461     0.2106E+02  -0.73451   1.83628
     387.00   3.587711     0.2084E+02  -0.73909   1.84772
     389.00   3.589950     0.2990E+02  -0.58230   1.45574
     391.00   3.592177     0.3827E+02  -0.47515   1.18786
     393.00   3.594393     0.1695E+02  -0.82884   2.07211
     395.00   3.596597     0.3256E+02  -0.54531   1.36327
     397.00   3.598790     0.2208E+02  -0.71393   1.78482
     399.00   3.600973     0.5363E+02  -0.32853   0.82133
     401.00   3.603144     0.6027E+02  -0.27787   0.69467
     403.00   3.605305     0.5868E+02  -0.28945   0.72364
     405.00   3.607455     0.5594E+02  -0.31023   0.77558
     407.00   3.609594     0.5176E+02  -0.34397   0.85994
     409.00   3.611723     0.6824E+02  -0.22396   0.55990
     411.00   3.613842     0.6346E+02  -0.25544   0.63861
     413.00   3.615950     0.6041E+02  -0.27687   0.69219
     415.00   3.618048     0.5824E+02  -0.29278   0.73196
     417.00   3.620136     0.5975E+02  -0.28161   0.70402
     419.00   3.622214     0.5828E+02  -0.29244   0.73110
     421.00   3.624282     0.5900E+02  -0.28710   0.71774
     423.00   3.626340     0.5452E+02  -0.32146   0.80365
     425.00   3.628389     0.6023E+02  -0.27819   0.69548
     427.00   3.630428     0.5633E+02  -0.30724   0.76810
     429.00   3.632457     0.5260E+02  -0.33702   0.84254
     431.00   3.634477     0.4568E+02  -0.39825   0.99561
     433.00   3.636488     0.7093E+02  -0.20716   0.51790
     435.00   3.638489     0.7179E+02  -0.20191   0.50478
     437.00   3.640481     0.7767E+02  -0.16775   0.41937
     439.00   3.642465     0.6711E+02  -0.23118   0.57794
     441.00   3.644439     0.7178E+02  -0.20195   0.50488
     443.00   3.646404     0.7890E+02  -0.16089   0.40223
     445.00   3.648360     0.8010E+02  -0.15436   0.38591
     447.00   3.650307     0.8703E+02  -0.11830   0.29575
     449.00   3.652246     0.9015E+02  -0.10301   0.25752
     451.00   3.654176     0.1048E+03  -0.03779   0.09448
     453.00   3.656098     0.8970E+02  -0.10517   0.26293
     455.00   3.658011     0.9532E+02  -0.07880   0.19701
     457.00   3.659916     0.1043E+03  -0.03966   0.09914
     459.00   3.661813     0.9756E+02  -0.06870   0.17174
     461.00   3.663701     0.1011E+03  -0.05328   0.13319
     463.00   3.665581     0.9825E+02  -0.06565   0.16414
     465.00   3.667453     0.9962E+02  -0.05963   0.14908
     467.00   3.669317     0.1051E+03  -0.03652   0.09131
     469.00   3.671173     0.1024E+03  -0.04785   0.11962
     471.00   3.673021     0.1002E+03  -0.05712   0.14279
     473.00   3.674861     0.1034E+03  -0.04328   0.10820
     475.00   3.676694     0.1063E+03  -0.03156   0.07890
     477.00   3.678518     0.1033E+03  -0.04403   0.11007
     479.00   3.680336     0.1046E+03  -0.03832   0.09581
     481.00   3.682145     0.1056E+03  -0.03448   0.08620
     483.00   3.683947     0.1097E+03  -0.01781   0.04453
     485.00   3.685742     0.1051E+03  -0.03648   0.09120
     487.00   3.687529     0.9689E+02  -0.07172   0.17929
     489.00   3.689309     0.1067E+03  -0.02965   0.07412
     491.00   3.691082     0.1075E+03  -0.02649   0.06622
     493.00   3.692847     0.1053E+03  -0.03575   0.08938
     495.00   3.694605     0.1095E+03  -0.01837   0.04592
     497.00   3.696356     0.1047E+03  -0.03796   0.09490
     499.00   3.698101     0.9705E+02  -0.07100   0.17750
     501.00   3.699838     0.9072E+02  -0.10025   0.25063
     503.00   3.701568     0.9765E+02  -0.06831   0.17078
     505.00   3.703291     0.9738E+02  -0.06948   0.17371
     507.00   3.705008     0.1019E+03  -0.04978   0.12446
     509.00   3.706718     0.9596E+02  -0.07589   0.18971
     511.00   3.708421     0.9869E+02  -0.06369   0.15923
     513.00   3.710117     0.9547E+02  -0.07811   0.19527
     515.00   3.711807     0.9168E+02  -0.09569   0.23922
     517.00   3.713490     0.8062E+02  -0.15155   0.37888
     519.00   3.715167     0.8504E+02  -0.12833   0.32083
     521.00   3.716838     0.9453E+02  -0.08240   0.20600
     523.00   3.718502     0.1060E+03  -0.03261   0.08154
     525.00   3.720159     0.1119E+03  -0.00917   0.02293
     527.00   3.721811     0.9640E+02  -0.07390   0.18476
     529.00   3.723456     0.1147E+03   0.00163  -0.00407
     531.00   3.725095     0.1232E+03   0.03263  -0.08158
     533.00   3.726727     0.1064E+03  -0.03104   0.07759
     535.00   3.728354     0.1188E+03   0.01686  -0.04216
     537.00   3.729974     0.1175E+03   0.01202  -0.03005
     539.00   3.731589     0.1149E+03   0.00218  -0.00546
     541.00   3.733197     0.1132E+03  -0.00430   0.01074
     543.00   3.734800     0.1150E+03   0.00280  -0.00700
     545.00   3.736397     0.1172E+03   0.01103  -0.02759
     547.00   3.737987     0.1146E+03   0.00131  -0.00328
     549.00   3.739572     0.1167E+03   0.00906  -0.02264
     551.00   3.741152     0.1143E+03   0.00000   0.00000
     553.00   3.742725     0.1196E+03   0.01978  -0.04945
     555.00   3.744293     0.1220E+03   0.02855  -0.07137
     557.00   3.745855     0.1193E+03   0.01882  -0.04705
     559.00   3.747412     0.1157E+03   0.00552  -0.01381
     561.00   3.748963     0.1201E+03   0.02153  -0.05382
     563.00   3.750508     0.1196E+03   0.01960  -0.04900
     565.00   3.752048     0.1222E+03   0.02911  -0.07277
     567.00   3.753583     0.1192E+03   0.01833  -0.04582
     569.00   3.755112     0.1235E+03   0.03375  -0.08436
     571.00   3.756636     0.1193E+03   0.01875  -0.04688
     573.00   3.758155     0.1304E+03   0.05737  -0.14342
     575.00   3.759668     0.1259E+03   0.04215  -0.10537
     577.00   3.761176     0.1275E+03   0.04752  -0.11881
     579.00   3.762679     0.1223E+03   0.02944  -0.07361
     581.00   3.764176     0.1279E+03   0.04881  -0.12203
     583.00   3.765669     0.1314E+03   0.06069  -0.15172
     585.00   3.767156     0.1261E+03   0.04290  -0.10726
     587.00   3.768638     0.1258E+03   0.04161  -0.10402
     589.00   3.770115     0.1128E+03  -0.00562   0.01406
     591.00   3.771587     0.1238E+03   0.03464  -0.08661
     593.00   3.773055     0.1245E+03   0.03729  -0.09323
     595.00   3.774517     0.1249E+03   0.03873  -0.09683
     597.00   3.775974     0.1278E+03   0.04858  -0.12144
     599.00   3.777427     0.1261E+03   0.04263  -0.10656
     601.00   3.778874     0.1246E+03   0.03760  -0.09400
     603.00   3.780317     0.1286E+03   0.05119  -0.12798
     605.00   3.781755     0.1314E+03   0.06061  -0.15152
     607.00   3.783189     0.1310E+03   0.05944  -0.14859
     609.00   3.784617     0.1266E+03   0.04438  -0.11094
     611.00   3.786041     0.1276E+03   0.04784  -0.11961
     613.00   3.787461     0.1205E+03   0.02294  -0.05735
     615.00   3.788875     0.1238E+03   0.03476  -0.08689
     617.00   3.790285     0.1147E+03   0.00144  -0.00360
     619.00   3.791691     0.1221E+03   0.02865  -0.07163
     621.00   3.793092     0.1206E+03   0.02326  -0.05815
     623.00   3.794488     0.1166E+03   0.00867  -0.02168
     625.00   3.795880     0.1134E+03  -0.00339   0.00849
     627.00   3.797267     0.1194E+03   0.01906  -0.04764
     629.00   3.798651     0.1227E+03   0.03089  -0.07723
     631.00   3.800029     0.1204E+03   0.02272  -0.05679
     633.00   3.801404     0.1229E+03   0.03162  -0.07905
     635.00   3.802774     0.1240E+03   0.03559  -0.08898
     637.00   3.804139     0.1240E+03   0.03537  -0.08842
     639.00   3.805501     0.1267E+03   0.04477  -0.11193
     641.00   3.806858     0.1243E+03   0.03645  -0.09112
     643.00   3.808211     0.1258E+03   0.04170  -0.10426
     645.00   3.809560     0.1253E+03   0.04007  -0.10016
     647.00   3.810904     0.1252E+03   0.03969  -0.09923
     649.00   3.812245     0.1231E+03   0.03214  -0.08035
     651.00   3.813581     0.1281E+03   0.04952  -0.12380
     653.00   3.814913     0.1289E+03   0.05241  -0.13102
     655.00   3.816241     0.1261E+03   0.04282  -0.10706
     657.00   3.817565     0.1207E+03   0.02385  -0.05962
     659.00   3.818885     0.1256E+03   0.04108  -0.10270
     661.00   3.820201     0.1267E+03   0.04466  -0.11164
     663.00   3.821513     0.1246E+03   0.03771  -0.09428
     665.00   3.822822     0.1233E+03   0.03310  -0.08276
     667.00   3.824126     0.1197E+03   0.02002  -0.05004
     669.00   3.825426     0.1205E+03   0.02309  -0.05773
     671.00   3.826723     0.1148E+03   0.00194  -0.00485
     673.00   3.828015     0.1176E+03   0.01231  -0.03077
     675.00   3.829304     0.1154E+03   0.00412  -0.01029
     677.00   3.830589     0.1161E+03   0.00703  -0.01757
     679.00   3.831870     0.1150E+03   0.00257  -0.00643
     681.00   3.833147     0.1160E+03   0.00635  -0.01587
     683.00   3.834421     0.1181E+03   0.01420  -0.03550
     685.00   3.835690     0.1154E+03   0.00421  -0.01052
     687.00   3.836957     0.1178E+03   0.01320  -0.03300
     689.00   3.838219     0.1207E+03   0.02355  -0.05888
     691.00   3.839478     0.1219E+03   0.02817  -0.07043
     693.00   3.840733     0.1217E+03   0.02730  -0.06824
     695.00   3.841985     0.1226E+03   0.03034  -0.07585
     697.00   3.843233     0.1256E+03   0.04111  -0.10278
     699.00   3.844477     0.1264E+03   0.04388  -0.10969
     701.00   3.845718     0.1262E+03   0.04319  -0.10798
     703.00   3.846955     0.1276E+03   0.04782  -0.11954
     705.00   3.848189     0.1248E+03   0.03831  -0.09579
     707.00   3.849419     0.1177E+03   0.01296  -0.03241
     709.00   3.850646     0.1112E+03  -0.01205   0.03012
     711.00   3.851870     0.1072E+03  -0.02795   0.06987
     713.00   3.853090     0.1040E+03  -0.04074   0.10185
     715.00   3.854306     0.1037E+03  -0.04225   0.10564
     717.00   3.855519     0.1057E+03  -0.03390   0.08476
     719.00   3.856729     0.1038E+03  -0.04195   0.10486
     721.00   3.857935     0.1072E+03  -0.02787   0.06967
     723.00   3.859138     0.1111E+03  -0.01239   0.03098
     725.00   3.860338     0.1130E+03  -0.00496   0.01240
     727.00   3.861534     0.1150E+03   0.00265  -0.00662
     729.00   3.862728     0.1157E+03   0.00530  -0.01326
     731.00   3.863917     0.1218E+03   0.02752  -0.06879
     733.00   3.865104     0.1222E+03   0.02894  -0.07234
     735.00   3.866287     0.1266E+03   0.04433  -0.11082
     737.00   3.867467     0.1316E+03   0.06142  -0.15355
     739.00   3.868644     0.1293E+03   0.05347  -0.13367
     741.00   3.869818     0.1319E+03   0.06237  -0.15592
     743.00   3.870989     0.1360E+03   0.07565  -0.18914
     745.00   3.872156     0.1353E+03   0.07347  -0.18368
     747.00   3.873321     0.1406E+03   0.08990  -0.22475
     749.00   3.874482     0.1402E+03   0.08863  -0.22157
     751.00   3.875640     0.1412E+03   0.09178  -0.22945
     753.00   3.876795     0.1443E+03   0.10143  -0.25358
     755.00   3.877947     0.1458E+03   0.10565  -0.26413
     757.00   3.879096     0.1458E+03   0.10586  -0.26465
     759.00   3.880242     0.1396E+03   0.08696  -0.21739
     761.00   3.881385     0.1337E+03   0.06826  -0.17066
     763.00   3.882524     0.1274E+03   0.04722  -0.11806
     765.00   3.883662     0.1206E+03   0.02331  -0.05828
     767.00   3.884795     0.1128E+03  -0.00559   0.01397
     769.00   3.885926     0.1151E+03   0.00326  -0.00815
     771.00   3.887054     0.1130E+03  -0.00484   0.01211
     773.00   3.888180     0.1134E+03  -0.00347   0.00868
     775.00   3.889302     0.1125E+03  -0.00673   0.01681
     777.00   3.890421     0.1145E+03   0.00102  -0.00254
     779.00   3.891537     0.1151E+03   0.00307  -0.00769
     781.00   3.892651     0.1157E+03   0.00542  -0.01356
     783.00   3.893762     0.1158E+03   0.00584  -0.01461
     785.00   3.894870     0.1145E+03   0.00084  -0.00210
     787.00   3.895975     0.1171E+03   0.01065  -0.02663
     789.00   3.897077     0.1171E+03   0.01069  -0.02672
     791.00   3.898176     0.1140E+03  -0.00116   0.00291
     793.00   3.899273     0.1155E+03   0.00450  -0.01126
     795.00   3.900367     0.1157E+03   0.00539  -0.01349
     797.00   3.901458     0.1193E+03   0.01849  -0.04622
     799.00   3.902547     0.1196E+03   0.01985  -0.04964
     801.00   3.903632     0.1230E+03   0.03183  -0.07957
     803.00   3.904716     0.1244E+03   0.03668  -0.09171
     805.00   3.905796     0.1243E+03   0.03639  -0.09098
     807.00   3.906873     0.1289E+03   0.05214  -0.13035
     809.00   3.907948     0.1286E+03   0.05135  -0.12838
     811.00   3.909021     0.1305E+03   0.05755  -0.14389
     813.00   3.910090     0.1355E+03   0.07408  -0.18521
     815.00   3.911158     0.1383E+03   0.08274  -0.20686
     817.00   3.912222     0.1394E+03   0.08623  -0.21559
     819.00   3.913284     0.1368E+03   0.07814  -0.19535
     821.00   3.914343     0.1305E+03   0.05780  -0.14449
     823.00   3.915400     0.1309E+03   0.05895  -0.14739
     825.00   3.916454     0.1304E+03   0.05717  -0.14293
     827.00   3.917506     0.1309E+03   0.05886  -0.14715
     829.00   3.918555     0.1291E+03   0.05303  -0.13256
     831.00   3.919601     0.1251E+03   0.03925  -0.09813
     833.00   3.920645     0.1239E+03   0.03513  -0.08784
     835.00   3.921686     0.1234E+03   0.03346  -0.08366
     837.00   3.922725     0.1243E+03   0.03643  -0.09108
     839.00   3.923762     0.1208E+03   0.02420  -0.06049
     841.00   3.924796     0.1245E+03   0.03720  -0.09299
     843.00   3.925828     0.1202E+03   0.02202  -0.05505
     845.00   3.926857     0.1136E+03  -0.00244   0.00610
     847.00   3.927883     0.1131E+03  -0.00463   0.01158
     849.00   3.928908     0.1155E+03   0.00477  -0.01192
     851.00   3.929929     0.1106E+03  -0.01420   0.03549
     853.00   3.930949     0.1152E+03   0.00365  -0.00912
     855.00   3.931966     0.1126E+03  -0.00652   0.01631
     857.00   3.932981     0.1194E+03   0.01901  -0.04752
     859.00   3.933993     0.1185E+03   0.01568  -0.03919
     861.00   3.935003     0.1209E+03   0.02456  -0.06140
     863.00   3.936011     0.1238E+03   0.03463  -0.08658
     865.00   3.937016     0.1250E+03   0.03898  -0.09744
     867.00   3.938019     0.1183E+03   0.01506  -0.03764
     869.00   3.939020     0.1238E+03   0.03483  -0.08709
     871.00   3.940018     0.1279E+03   0.04906  -0.12265
     873.00   3.941014     0.1292E+03   0.05334  -0.13334
     875.00   3.942008     0.1287E+03   0.05176  -0.12940
     877.00   3.943000     0.1302E+03   0.05661  -0.14152
     879.00   3.943989     0.1336E+03   0.06793  -0.16982
     881.00   3.944976     0.1318E+03   0.06189  -0.15474
     883.00   3.945961     0.1334E+03   0.06724  -0.16809
     885.00   3.946943     0.1303E+03   0.05705  -0.14263
     887.00   3.947924     0.1241E+03   0.03597  -0.08993
     889.00   3.948902     0.1243E+03   0.03632  -0.09080
     891.00   3.949878     0.1259E+03   0.04207  -0.10518
     893.00   3.950851     0.1245E+03   0.03705  -0.09263
     895.00   3.951823     0.1252E+03   0.03969  -0.09923
     897.00   3.952792     0.1257E+03   0.04132  -0.10329
     899.00   3.953760     0.1261E+03   0.04260  -0.10650
     901.00   3.954725     0.1238E+03   0.03479  -0.08697
     903.00   3.955688     0.1290E+03   0.05263  -0.13158
     905.00   3.956649     0.1333E+03   0.06694  -0.16735
     907.00   3.957607     0.1343E+03   0.07005  -0.17512
     909.00   3.958564     0.1330E+03   0.06593  -0.16484
     911.00   3.959518     0.1347E+03   0.07150  -0.17876
     913.00   3.960471     0.1365E+03   0.07720  -0.19300
     915.00   3.961421     0.1358E+03   0.07491  -0.18727
     917.00   3.962369     0.1357E+03   0.07463  -0.18658
     919.00   3.963315     0.1368E+03   0.07798  -0.19494
     921.00   3.964260     0.1313E+03   0.06044  -0.15110
     923.00   3.965202     0.1298E+03   0.05526  -0.13816
     925.00   3.966142     0.1279E+03   0.04891  -0.12228
     927.00   3.967080     0.1298E+03   0.05533  -0.13833
     929.00   3.968016     0.1263E+03   0.04343  -0.10857
     931.00   3.968950     0.1268E+03   0.04530  -0.11326
     933.00   3.969882     0.1279E+03   0.04888  -0.12219
     935.00   3.970812     0.1278E+03   0.04847  -0.12118
     937.00   3.971740     0.1250E+03   0.03887  -0.09717
     939.00   3.972666     0.1281E+03   0.04950  -0.12375
     941.00   3.973590     0.1268E+03   0.04497  -0.11243
     943.00   3.974512     0.1290E+03   0.05261  -0.13152
     945.00   3.975432     0.1278E+03   0.04864  -0.12159
     947.00   3.976350     0.1308E+03   0.05848  -0.14621
     949.00   3.977266     0.1313E+03   0.06014  -0.15035
     951.00   3.978180     0.1279E+03   0.04879  -0.12198
     953.00   3.979093     0.1297E+03   0.05508  -0.13770
     955.00   3.980003     0.1286E+03   0.05122  -0.12805
     957.00   3.980912     0.1297E+03   0.05513  -0.13782
     959.00   3.981819     0.1314E+03   0.06058  -0.15144
     961.00   3.982723     0.1301E+03   0.05637  -0.14092
     963.00   3.983626     0.1313E+03   0.06040  -0.15101
     965.00   3.984527     0.1296E+03   0.05459  -0.13648
     967.00   3.985426     0.1300E+03   0.05600  -0.14000
     969.00   3.986324     0.1313E+03   0.06025  -0.15063
     971.00   3.987219     0.1293E+03   0.05374  -0.13434
     973.00   3.988113     0.1280E+03   0.04933  -0.12331
     975.00   3.989005     0.1279E+03   0.04879  -0.12198
     977.00   3.989895     0.1284E+03   0.05042  -0.12605
     979.00   3.990783     0.1271E+03   0.04629  -0.11572
     981.00   3.991669     0.1297E+03   0.05484  -0.13710
     983.00   3.992553     0.1286E+03   0.05139  -0.12848
     985.00   3.993436     0.1292E+03   0.05344  -0.13361
     987.00   3.994317     0.1284E+03   0.05064  -0.12661
     989.00   3.995196     0.1282E+03   0.04992  -0.12480
     991.00   3.996074     0.1280E+03   0.04940  -0.12350
     993.00   3.996949     0.1286E+03   0.05142  -0.12856
     995.00   3.997823     0.1291E+03   0.05286  -0.13214
     997.00   3.998695     0.1291E+03   0.05310  -0.13275
     999.00   3.999566     0.1288E+03   0.05206  -0.13015
    1003.00   4.001301     0.1290E+03   0.05257  -0.13142
    1008.00   4.003461     0.1284E+03   0.05051  -0.12628
    1013.00   4.005610     0.1298E+03   0.05516  -0.13789
    1018.00   4.007748     0.1285E+03   0.05087  -0.12718
    1023.00   4.009875     0.1289E+03   0.05217  -0.13043
    1028.00   4.011993     0.1290E+03   0.05270  -0.13175
    1033.00   4.014100     0.1279E+03   0.04899  -0.12248
    1038.00   4.016197     0.1274E+03   0.04705  -0.11762
    1043.00   4.018284     0.1279E+03   0.04889  -0.12223
    1048.00   4.020361     0.1272E+03   0.04644  -0.11611
    1053.00   4.022429     0.1261E+03   0.04285  -0.10714
    1058.00   4.024486     0.1242E+03   0.03625  -0.09062
    1063.00   4.026533     0.1236E+03   0.03407  -0.08516
    1068.00   4.028571     0.1230E+03   0.03183  -0.07958
    1073.00   4.030600     0.1235E+03   0.03356  -0.08391
    1078.00   4.032619     0.1227E+03   0.03072  -0.07680
    1083.00   4.034628     0.1212E+03   0.02539  -0.06348
    1088.00   4.036629     0.1205E+03   0.02298  -0.05746
    1093.00   4.038620     0.1201E+03   0.02160  -0.05400
    1098.00   4.040603     0.1184E+03   0.01545  -0.03863
    1103.00   4.042576     0.1179E+03   0.01358  -0.03394
    1108.00   4.044539     0.1158E+03   0.00587  -0.01466
    1113.00   4.046495     0.1159E+03   0.00619  -0.01547
    1118.00   4.048442     0.1154E+03   0.00419  -0.01047
    1123.00   4.050380     0.1155E+03   0.00478  -0.01195
    1128.00   4.052309     0.1151E+03   0.00304  -0.00759
    1133.00   4.054230     0.1151E+03   0.00302  -0.00755
    1138.00   4.056142     0.1146E+03   0.00137  -0.00342
    1143.00   4.058046     0.1140E+03  -0.00111   0.00278
    1148.00   4.059942     0.1148E+03   0.00189  -0.00473
    1153.00   4.061830     0.1147E+03   0.00176  -0.00440
    1158.00   4.063708     0.1139E+03  -0.00145   0.00361
    1163.00   4.065579     0.1129E+03  -0.00532   0.01330
    1168.00   4.067443     0.1129E+03  -0.00533   0.01333
    1173.00   4.069298     0.1131E+03  -0.00459   0.01148
    1178.00   4.071145     0.1115E+03  -0.01066   0.02665
    1183.00   4.072985     0.1106E+03  -0.01418   0.03546
    1188.00   4.074817     0.1096E+03  -0.01830   0.04574
    1193.00   4.076640     0.1108E+03  -0.01360   0.03399
    1198.00   4.078457     0.1084E+03  -0.02286   0.05714
    1203.00   4.080266     0.1098E+03  -0.01728   0.04320
    1208.00   4.082067     0.1092E+03  -0.01985   0.04963
    1213.00   4.083861     0.1093E+03  -0.01945   0.04863
    1218.00   4.085648     0.1093E+03  -0.01917   0.04792
    1223.00   4.087426     0.1088E+03  -0.02118   0.05296
    1228.00   4.089198     0.1083E+03  -0.02342   0.05855
    1233.00   4.090963     0.1078E+03  -0.02538   0.06344
    1238.00   4.092721     0.1075E+03  -0.02648   0.06620
    1243.00   4.094471     0.1062E+03  -0.03189   0.07972
    1248.00   4.096214     0.1063E+03  -0.03154   0.07886
    1253.00   4.097951     0.1056E+03  -0.03422   0.08554
    1258.00   4.099681     0.1052E+03  -0.03616   0.09040
    1263.00   4.101403     0.1049E+03  -0.03728   0.09320
    1268.00   4.103119     0.1043E+03  -0.03972   0.09930
    1273.00   4.104828     0.1042E+03  -0.04015   0.10038
    1278.00   4.106531     0.1043E+03  -0.03990   0.09974
    1283.00   4.108227     0.1021E+03  -0.04901   0.12252
    1288.00   4.109916     0.1029E+03  -0.04541   0.11352
    1293.00   4.111598     0.1022E+03  -0.04868   0.12169
    1298.00   4.113275     0.1028E+03  -0.04619   0.11546
    1303.00   4.114944     0.1019E+03  -0.04995   0.12488
    1308.00   4.116608     0.1019E+03  -0.04995   0.12488
    1313.00   4.118265     0.1003E+03  -0.05669   0.14171
    1318.00   4.119915     0.9990E+02  -0.05841   0.14602
    1323.00   4.121560     0.9979E+02  -0.05890   0.14726
    1328.00   4.123198     0.9848E+02  -0.06461   0.16154
    1333.00   4.124830     0.9848E+02  -0.06461   0.16153
    1338.00   4.126456     0.9769E+02  -0.06813   0.17033
    1343.00   4.128076     0.9764E+02  -0.06836   0.17089
    1348.00   4.129690     0.9691E+02  -0.07161   0.17903
    1353.00   4.131298     0.9637E+02  -0.07402   0.18506
    1358.00   4.132900     0.9517E+02  -0.07949   0.19872
    1363.00   4.134496     0.9500E+02  -0.08024   0.20059
    1368.00   4.136086     0.9561E+02  -0.07750   0.19374
    1373.00   4.137671     0.9611E+02  -0.07521   0.18803
    1378.00   4.139249     0.9615E+02  -0.07501   0.18752
    1383.00   4.140822     0.9615E+02  -0.07501   0.18752
    1388.00   4.142389     0.9531E+02  -0.07882   0.19706
    1393.00   4.143951     0.8714E+02  -0.11776   0.29440
    1398.00   4.145507     0.8780E+02  -0.11448   0.28621
    1403.00   4.147058     0.8734E+02  -0.11677   0.29192
    1408.00   4.148602     0.8795E+02  -0.11375   0.28436
    1413.00   4.150142     0.8745E+02  -0.11623   0.29058
    1418.00   4.151676     0.8805E+02  -0.11326   0.28316
    1423.00   4.153205     0.8760E+02  -0.11549   0.28872
    1428.00   4.154728     0.8700E+02  -0.11848   0.29619
    1433.00   4.156246     0.8847E+02  -0.11117   0.27793
    1438.00   4.157759     0.8898E+02  -0.10871   0.27177
    1443.00   4.159266     0.8787E+02  -0.11415   0.28538
    1448.00   4.160769     0.8917E+02  -0.10778   0.26944
    1453.00   4.162266     0.8873E+02  -0.10993   0.27481
    1457.00   4.163460     0.8917E+02  -0.10777   0.26943
    1462.00   4.164948     0.8488E+02  -0.12917   0.32293
    1468.00   4.166726     0.8554E+02  -0.12582   0.31454
    1473.00   4.168202     0.8529E+02  -0.12708   0.31771
    1478.00   4.169674     0.8607E+02  -0.12315   0.30787
    1483.00   4.171141     0.8664E+02  -0.12025   0.30062
    1488.00   4.172603     0.8640E+02  -0.12148   0.30370
    1493.00   4.174060     0.8817E+02  -0.11267   0.28168
    1498.00   4.175512     0.8804E+02  -0.11330   0.28326
    1503.00   4.176959     0.8740E+02  -0.11648   0.29120
    1508.00   4.178401     0.8791E+02  -0.11393   0.28483
    1513.00   4.179839     0.8930E+02  -0.10711   0.26777
    1518.00   4.181272     0.8974E+02  -0.10498   0.26245
    1523.00   4.182700     0.8989E+02  -0.10424   0.26061
    1528.00   4.184123     0.9052E+02  -0.10122   0.25304
    1533.00   4.185542     0.9047E+02  -0.10147   0.25367
    1538.00   4.186956     0.8830E+02  -0.11201   0.28003
    1543.00   4.188366     0.8933E+02  -0.10697   0.26744
    1548.00   4.189771     0.8974E+02  -0.10497   0.26243
    1553.00   4.191172     0.8955E+02  -0.10589   0.26472
    1558.00   4.192567     0.8673E+02  -0.11983   0.29957
    1563.00   4.193959     0.8774E+02  -0.11479   0.28698
    1568.00   4.195346     0.8800E+02  -0.11351   0.28378
    1573.00   4.196729     0.8964E+02  -0.10549   0.26373
    1578.00   4.198107     0.8161E+02  -0.14622   0.36555
    1583.00   4.199481     0.8470E+02  -0.13011   0.32527
    1588.00   4.200850     0.8551E+02  -0.12595   0.31488
    1593.00   4.202216     0.8791E+02  -0.11393   0.28484
    1598.00   4.203577     0.9006E+02  -0.10346   0.25864
    1605.00   4.205475     0.8516E+02  -0.12773   0.31932
    1615.00   4.208173     0.8813E+02  -0.11286   0.28216
    1625.00   4.210854     0.8418E+02  -0.13275   0.33188
    1635.00   4.213518     0.8748E+02  -0.11606   0.29015
    1645.00   4.216166     0.8404E+02  -0.13350   0.33375
    1655.00   4.218798     0.8572E+02  -0.12490   0.31225
    1665.00   4.221415     0.8306E+02  -0.13859   0.34649
    1675.00   4.224015     0.8386E+02  -0.13441   0.33602
    1685.00   4.226600     0.8411E+02  -0.13313   0.33282
    1695.00   4.229170     0.8210E+02  -0.14363   0.35908
    1705.00   4.231725     0.8109E+02  -0.14902   0.37255
    1715.00   4.234264     0.7930E+02  -0.15873   0.39682
    1725.00   4.236789     0.7788E+02  -0.16657   0.41642
    1735.00   4.239300     0.7558E+02  -0.17954   0.44886
    1745.00   4.241796     0.7446E+02  -0.18603   0.46507
    1755.00   4.244277     0.7346E+02  -0.19191   0.47977
    1765.00   4.246745     0.7161E+02  -0.20302   0.50756
    1775.00   4.249198     0.6993E+02  -0.21333   0.53332
    1785.00   4.251638     0.6882E+02  -0.22025   0.55062
    1795.00   4.254065     0.6714E+02  -0.23100   0.57750
    1805.00   4.256477     0.6567E+02  -0.24064   0.60160
    1815.00   4.258877     0.6451E+02  -0.24835   0.62089
    1825.00   4.261263     0.6357E+02  -0.25474   0.63686
    1835.00   4.263636     0.6264E+02  -0.26111   0.65277
    1845.00   4.265996     0.6147E+02  -0.26932   0.67331
    1855.00   4.268344     0.6081E+02  -0.27399   0.68498
    1865.00   4.270679     0.5947E+02  -0.28371   0.70927
    1875.00   4.273001     0.5829E+02  -0.29241   0.73102
    1885.00   4.275311     0.5764E+02  -0.29722   0.74304
    1895.00   4.277609     0.5586E+02  -0.31088   0.77721
    1905.00   4.279895     0.5568E+02  -0.31231   0.78078
    1915.00   4.282169     0.5453E+02  -0.32135   0.80336
    1925.00   4.284431     0.5357E+02  -0.32903   0.82258
    1935.00   4.286681     0.5220E+02  -0.34032   0.85080
    1945.00   4.288919     0.5098E+02  -0.35055   0.87638
    1955.00   4.291147     0.5042E+02  -0.35537   0.88843
    1965.00   4.293363     0.4941E+02  -0.36418   0.91044
    1975.00   4.295567     0.4819E+02  -0.37504   0.93760
    1985.00   4.297760     0.4746E+02  -0.38169   0.95423
    1995.00   4.299943     0.4683E+02  -0.38741   0.96853
    2005.00   4.302114     0.4642E+02  -0.39125   0.97813
    2015.00   4.304275     0.4578E+02  -0.39729   0.99323
    2025.00   4.306425     0.4483E+02  -0.40638   1.01595
    2035.00   4.308564     0.4426E+02  -0.41192   1.02980
    2045.00   4.310693     0.4398E+02  -0.41472   1.03679
    2055.00   4.312812     0.4333E+02  -0.42117   1.05293
    2065.00   4.314920     0.4268E+02  -0.42772   1.06930
    2075.00   4.317018     0.4221E+02  -0.43252   1.08129
    2085.00   4.319106     0.4165E+02  -0.43839   1.09598
    2095.00   4.321184     0.4098E+02  -0.44537   1.11342
    2105.00   4.323252     0.4068E+02  -0.44865   1.12162
    2115.00   4.325311     0.4004E+02  -0.45544   1.13859
    2125.00   4.327359     0.3949E+02  -0.46150   1.15376
    2135.00   4.329398     0.3908E+02  -0.46597   1.16492
    2145.00   4.331428     0.3853E+02  -0.47223   1.18057
    2155.00   4.333447     0.3797E+02  -0.47850   1.19625
    2165.00   4.335458     0.3731E+02  -0.48610   1.21526
    2175.00   4.337460     0.3680E+02  -0.49215   1.23036
    2185.00   4.339452     0.3635E+02  -0.49753   1.24381
    2195.00   4.341434     0.3588E+02  -0.50311   1.25778
    2205.00   4.343409     0.3511E+02  -0.51257   1.28142
    2215.00   4.345374     0.3489E+02  -0.51529   1.28823
    2225.00   4.347330     0.3415E+02  -0.52455   1.31138
    2235.00   4.349277     0.3370E+02  -0.53032   1.32581
    2245.00   4.351216     0.3321E+02  -0.53665   1.34163
    2255.00   4.353147     0.3278E+02  -0.54238   1.35595
    2265.00   4.355068     0.3215E+02  -0.55083   1.37708
    2275.00   4.356981     0.3185E+02  -0.55490   1.38725
    2285.00   4.358886     0.3124E+02  -0.56330   1.40826
    2295.00   4.360783     0.2486E+02  -0.66251   1.65627
    2305.00   4.362671     0.2771E+02  -0.61541   1.53853
    2315.00   4.364551     0.2765E+02  -0.61626   1.54065
    2325.00   4.366423     0.2313E+02  -0.69374   1.73435
    2335.00   4.368287     0.2540E+02  -0.65307   1.63268
    2345.00   4.370143     0.2315E+02  -0.69342   1.73356
    2355.00   4.371991     0.2150E+02  -0.72557   1.81392
    2365.00   4.373831     0.2337E+02  -0.68924   1.72311
    2375.00   4.375664     0.2170E+02  -0.72143   1.80356
    2385.00   4.377488     0.2022E+02  -0.75213   1.88033
    2395.00   4.379306     0.2165E+02  -0.72259   1.80647
    2405.00   4.381115     0.2064E+02  -0.74329   1.85823
    2415.00   4.382917     0.1900E+02  -0.77923   1.94807
    2425.00   4.384712     0.2014E+02  -0.75398   1.88495
    2435.00   4.386499     0.1906E+02  -0.77797   1.94491
    2445.00   4.388279     0.1913E+02  -0.77623   1.94056
    2455.00   4.390052     0.1834E+02  -0.79448   1.98619
    2465.00   4.391817     0.1819E+02  -0.79824   1.99561
    2475.00   4.393575     0.1764E+02  -0.81155   2.02888
    2485.00   4.395327     0.1524E+02  -0.87500   2.18750
    2495.00   4.397071     0.1442E+02  -0.89915   2.24788
    2505.00   4.398808     0.1463E+02  -0.89282   2.23206
    2515.00   4.400538     0.1400E+02  -0.91179   2.27947
    2525.00   4.402262     0.1432E+02  -0.90199   2.25499
    2535.00   4.403978     0.1436E+02  -0.90081   2.25203
    2545.00   4.405688     0.1423E+02  -0.90472   2.26179
    2555.00   4.407391     0.1425E+02  -0.90408   2.26021
    2565.00   4.409087     0.1440E+02  -0.89950   2.24876
    2575.00   4.410777     0.1456E+02  -0.89483   2.23707
    2585.00   4.412460     0.1429E+02  -0.90284   2.25709
    2595.00   4.414137     0.1435E+02  -0.90111   2.25277
    2605.00   4.415808     0.1436E+02  -0.90097   2.25242
    2615.00   4.417472     0.1416E+02  -0.90699   2.26747
    2625.00   4.419129     0.1397E+02  -0.91267   2.28166
    2635.00   4.420781     0.1397E+02  -0.91286   2.28214
    2645.00   4.422426     0.1386E+02  -0.91635   2.29088
    2655.00   4.424065     0.1370E+02  -0.92113   2.30284
    2665.00   4.425697     0.1351E+02  -0.92727   2.31817
    2675.00   4.427324     0.1361E+02  -0.92397   2.30993
    2685.00   4.428945     0.1348E+02  -0.92827   2.32066
    2695.00   4.430559     0.1327E+02  -0.93520   2.33800
    2705.00   4.432167     0.1325E+02  -0.93592   2.33980
    2715.00   4.433770     0.1314E+02  -0.93954   2.34884
    2725.00   4.435367     0.1306E+02  -0.94215   2.35537
    2735.00   4.436957     0.1287E+02  -0.94845   2.37113
    2745.00   4.438542     0.1283E+02  -0.94969   2.37423
    2755.00   4.440122     0.1275E+02  -0.95237   2.38093
    2765.00   4.441695     0.1261E+02  -0.95742   2.39355
    2775.00   4.443263     0.1246E+02  -0.96252   2.40630
    2785.00   4.444825     0.1240E+02  -0.96441   2.41102
    2795.00   4.446382     0.1234E+02  -0.96650   2.41625
    2805.00   4.447933     0.1222E+02  -0.97074   2.42686
    2815.00   4.449478     0.1208E+02  -0.97577   2.43942
    2825.00   4.451018     0.1200E+02  -0.97880   2.44701
    2835.00   4.452553     0.1193E+02  -0.98141   2.45353
    2845.00   4.454082     0.1180E+02  -0.98606   2.46515
    2855.00   4.455606     0.1169E+02  -0.99003   2.47506
    2865.00   4.457125     0.1159E+02  -0.99373   2.48432
    2875.00   4.458638     0.1149E+02  -0.99751   2.49378
    2885.00   4.460146     0.1140E+02  -1.00119   2.50298
    2895.00   4.461648     0.1130E+02  -1.00496   2.51241
    2905.00   4.463146     0.1119E+02  -1.00911   2.52278
    2915.00   4.464639     0.1110E+02  -1.01260   2.53149
    2925.00   4.466126     0.1095E+02  -1.01866   2.54664
    2935.00   4.467608     0.1091E+02  -1.02033   2.55082
    2945.00   4.469085     0.1079E+02  -1.02493   2.56234
    2955.00   4.470557     0.1070E+02  -1.02861   2.57153
    2965.00   4.472025     0.1062E+02  -1.03182   2.57956
    2975.00   4.473487     0.1053E+02  -1.03566   2.58914
    2985.00   4.474944     0.1042E+02  -1.04012   2.60031
    2995.00   4.476397     0.1032E+02  -1.04428   2.61070
    3005.00   4.477844     0.1024E+02  -1.04765   2.61913
    3015.00   4.479287     0.1019E+02  -1.04991   2.62478
    3025.00   4.480725     0.1010E+02  -1.05359   2.63397
    3035.00   4.482159     0.1002E+02  -1.05719   2.64299
    3045.00   4.483587     0.9975E+01  -1.05904   2.64761
    3055.00   4.485011     0.9897E+01  -1.06245   2.65613
    3065.00   4.486430     0.9825E+01  -1.06563   2.66407
    3075.00   4.487845     0.9772E+01  -1.06801   2.67003
    3085.00   4.489255     0.9682E+01  -1.07201   2.68003
    3095.00   4.490661     0.9628E+01  -1.07442   2.68606
    3105.00   4.492062     0.9575E+01  -1.07683   2.69208
    3115.00   4.493458     0.9464E+01  -1.08192   2.70479
    3125.00   4.494850     0.9420E+01  -1.08391   2.70977
    3135.00   4.496238     0.9350E+01  -1.08717   2.71792
    3145.00   4.497621     0.9275E+01  -1.09067   2.72666
    3155.00   4.499000     0.9191E+01  -1.09461   2.73653
    3165.00   4.500374     0.9111E+01  -1.09840   2.74601
    3175.00   4.501744     0.9053E+01  -1.10117   2.75291
    3185.00   4.503109     0.8982E+01  -1.10461   2.76151
    3195.00   4.504471     0.8920E+01  -1.10763   2.76908
    3210.00   4.506505     0.8805E+01  -1.11325   2.78313
    3230.00   4.509202     0.8655E+01  -1.12072   2.80180
    3250.00   4.511883     0.8512E+01  -1.12796   2.81990
    3270.00   4.514548     0.8359E+01  -1.13580   2.83951
    3290.00   4.517196     0.8199E+01  -1.14420   2.86050
    3310.00   4.519828     0.8063E+01  -1.15150   2.87874
    3330.00   4.522444     0.7909E+01  -1.15986   2.89965
    3350.00   4.525045     0.7775E+01  -1.16729   2.91824
    3370.00   4.527630     0.7625E+01  -1.17573   2.93932
    3390.00   4.530200     0.7472E+01  -1.18453   2.96132
    3410.00   4.532754     0.7322E+01  -1.19336   2.98341
    3430.00   4.535294     0.7195E+01  -1.20097   3.00244
    3450.00   4.537819     0.7057E+01  -1.20936   3.02339
    3470.00   4.540329     0.6916E+01  -1.21812   3.04530
    3490.00   4.542826     0.6783E+01  -1.22653   3.06632
    3510.00   4.545307     0.6655E+01  -1.23484   3.08709
    3530.00   4.547775     0.6517E+01  -1.24394   3.10985
    3550.00   4.550228     0.6396E+01  -1.25206   3.13014
    3570.00   4.552669     0.6270E+01  -1.26071   3.15178
    3590.00   4.555095     0.6151E+01  -1.26904   3.17259
    3610.00   4.557508     0.6040E+01  -1.27697   3.19243
    3630.00   4.559907     0.5921E+01  -1.28561   3.21402
    3650.00   4.562293     0.5798E+01  -1.29469   3.23673
    3670.00   4.564666     0.5684E+01  -1.30335   3.25836
    3690.00   4.567026     0.5562E+01  -1.31274   3.28185
    3710.00   4.569374     0.5451E+01  -1.32153   3.30382
    3730.00   4.571709     0.5359E+01  -1.32887   3.32218
    3750.00   4.574031     0.5241E+01  -1.33860   3.34649
    3770.00   4.576342     0.5156E+01  -1.34563   3.36409
    3790.00   4.578639     0.5055E+01  -1.35429   3.38571
    3810.00   4.580925     0.4962E+01  -1.36234   3.40586
    3830.00   4.583199     0.4873E+01  -1.37018   3.42545
    3850.00   4.585461     0.4782E+01  -1.37835   3.44588
    3870.00   4.587711     0.4681E+01  -1.38765   3.46913
    3890.00   4.589950     0.4597E+01  -1.39549   3.48873
    3910.00   4.592176     0.4514E+01  -1.40342   3.50856
    3930.00   4.594393     0.4429E+01  -1.41166   3.52916
    3950.00   4.596597     0.4335E+01  -1.42094   3.55234
    3970.00   4.598790     0.4258E+01  -1.42873   3.57183
    3990.00   4.600973     0.4167E+01  -1.43817   3.59543
    4010.00   4.603145     0.4098E+01  -1.44543   3.61357
    4030.00   4.605305     0.4028E+01  -1.45288   3.63221
    4050.00   4.607455     0.3948E+01  -1.46163   3.65407
    4070.00   4.609594     0.3879E+01  -1.46929   3.67324
    4090.00   4.611723     0.3809E+01  -1.47722   3.69304
    4110.00   4.613842     0.3744E+01  -1.48465   3.71163
    4130.00   4.615950     0.3682E+01  -1.49184   3.72959
    4150.00   4.618048     0.3617E+01  -1.49963   3.74908
    4170.00   4.620136     0.3556E+01  -1.50704   3.76761
    4190.00   4.622214     0.3493E+01  -1.51483   3.78708
    4210.00   4.624282     0.3430E+01  -1.52269   3.80673
    4230.00   4.626340     0.3383E+01  -1.52864   3.82160
    4250.00   4.628389     0.3321E+01  -1.53664   3.84161
    4270.00   4.630428     0.3271E+01  -1.54335   3.85836
    4290.00   4.632457     0.3142E+01  -1.56079   3.90197
    4310.00   4.634478     0.3010E+01  -1.57942   3.94855
    4330.00   4.636488     0.2991E+01  -1.58215   3.95537
    4350.00   4.638489     0.2882E+01  -1.59827   3.99568
    4370.00   4.640481     0.2812E+01  -1.60900   4.02251
    4390.00   4.642465     0.2757E+01  -1.61755   4.04388
    4410.00   4.644439     0.2667E+01  -1.63192   4.07980
    4430.00   4.646404     0.2626E+01  -1.63863   4.09657
    4450.00   4.648360     0.2581E+01  -1.64616   4.11541
    4470.00   4.650308     0.2506E+01  -1.65902   4.14755
    4490.00   4.652246     0.2491E+01  -1.66153   4.15383
    4510.00   4.654177     0.2436E+01  -1.67134   4.17836
    4530.00   4.656098     0.2381E+01  -1.68120   4.20299
    4550.00   4.658011     0.2362E+01  -1.68473   4.21182
    4570.00   4.659916     0.2331E+01  -1.69035   4.22587
    4590.00   4.661813     0.2270E+01  -1.70199   4.25497
    4610.00   4.663701     0.2261E+01  -1.70360   4.25901
    4630.00   4.665581     0.2221E+01  -1.71144   4.27861
    4650.00   4.667453     0.2196E+01  -1.71638   4.29095
    4670.00   4.669317     0.2176E+01  -1.72024   4.30060
    4690.00   4.671173     0.2138E+01  -1.72802   4.32004
    4710.00   4.673021     0.2103E+01  -1.73512   4.33781
    4730.00   4.674861     0.2095E+01  -1.73677   4.34191
    4750.00   4.676694     0.2053E+01  -1.74556   4.36391
    4770.00   4.678518     0.2026E+01  -1.75143   4.37857
    4790.00   4.680336     0.2004E+01  -1.75614   4.39034
    4810.00   4.682145     0.1961E+01  -1.76556   4.41389
    4830.00   4.683947     0.1956E+01  -1.76666   4.41666
    4850.00   4.685741     0.1922E+01  -1.77411   4.43529
    4870.00   4.687529     0.1888E+01  -1.78193   4.45482
    4890.00   4.689309     0.1862E+01  -1.78793   4.46982
    4910.00   4.691082     0.1839E+01  -1.79338   4.48344
    4930.00   4.692847     0.1811E+01  -1.80007   4.50016
    4950.00   4.694605     0.1782E+01  -1.80701   4.51751
    4970.00   4.696356     0.1766E+01  -1.81105   4.52762
    4990.00   4.698101     0.1740E+01  -1.81745   4.54363
    5010.00   4.699838     0.1718E+01  -1.82287   4.55718
    5030.00   4.701568     0.1696E+01  -1.82864   4.57161
    5050.00   4.703291     0.1664E+01  -1.83686   4.59215
    5070.00   4.705008     0.1648E+01  -1.84105   4.60263
    5090.00   4.706717     0.1627E+01  -1.84666   4.61666
    5110.00   4.708421     0.1600E+01  -1.85391   4.63477
    5130.00   4.710117     0.1586E+01  -1.85756   4.64390
    5150.00   4.711807     0.1560E+01  -1.86484   4.66210
    5170.00   4.713490     0.1549E+01  -1.86800   4.66999
    5190.00   4.715167     0.1523E+01  -1.87532   4.68830
    5210.00   4.716838     0.1506E+01  -1.88023   4.70057
    5230.00   4.718502     0.1482E+01  -1.88726   4.71815
    5250.00   4.720160     0.1467E+01  -1.89141   4.72852
    5270.00   4.721810     0.1456E+01  -1.89479   4.73699
    5290.00   4.723455     0.1427E+01  -1.90342   4.75855
    5310.00   4.725095     0.1409E+01  -1.90895   4.77238
    5330.00   4.726727     0.1395E+01  -1.91336   4.78341
    5350.00   4.728354     0.1378E+01  -1.91869   4.79673
    5370.00   4.729974     0.1362E+01  -1.92374   4.80936
    5390.00   4.731589     0.1346E+01  -1.92891   4.82228
    5410.00   4.733197     0.1330E+01  -1.93422   4.83556
    5430.00   4.734800     0.1308E+01  -1.94148   4.85371
    5450.00   4.736397     0.1298E+01  -1.94465   4.86163
    5470.00   4.737988     0.1279E+01  -1.95124   4.87810
    5490.00   4.739573     0.1264E+01  -1.95615   4.89037
    5510.00   4.741152     0.1248E+01  -1.96179   4.90448
    5530.00   4.742725     0.1244E+01  -1.96318   4.90795
    5550.00   4.744293     0.1217E+01  -1.97274   4.93185
    5570.00   4.745855     0.1210E+01  -1.97516   4.93790
    5590.00   4.747412     0.1191E+01  -1.98188   4.95471
    5610.00   4.748963     0.1180E+01  -1.98596   4.96490
    5630.00   4.750508     0.1161E+01  -1.99301   4.98251
    5650.00   4.752048     0.1153E+01  -1.99630   4.99075
    5670.00   4.753583     0.1139E+01  -2.00159   5.00397
    5690.00   4.755112     0.1121E+01  -2.00854   5.02136
    5710.00   4.756636     0.1113E+01  -2.01153   5.02883
    5730.00   4.758155     0.1099E+01  -2.01703   5.04258
    5750.00   4.759668     0.1086E+01  -2.02221   5.05554
    5770.00   4.761176     0.1072E+01  -2.02787   5.06967
    5790.00   4.762679     0.1062E+01  -2.03169   5.07924
    5810.00   4.764176     0.1047E+01  -2.03802   5.09504
    5830.00   4.765669     0.1035E+01  -2.04284   5.10710
    5850.00   4.767156     0.1024E+01  -2.04779   5.11948
    5870.00   4.768638     0.1009E+01  -2.05405   5.13513
    5890.00   4.770115     0.9980E+00  -2.05885   5.14713
    5910.00   4.771587     0.9872E+00  -2.06359   5.15897
    5930.00   4.773055     0.9762E+00  -2.06844   5.17110
    5950.00   4.774517     0.9633E+00  -2.07423   5.18557
    5970.00   4.775974     0.9540E+00  -2.07842   5.19605
    5990.00   4.777427     0.9428E+00  -2.08355   5.20887
    6010.00   4.778874     0.9318E+00  -2.08864   5.22160
    6030.00   4.780317     0.9209E+00  -2.09378   5.23444
    6050.00   4.781755     0.9085E+00  -2.09966   5.24916
    6070.00   4.783189     0.8982E+00  -2.10459   5.26148
    6090.00   4.784617     0.8877E+00  -2.10970   5.27424
    6110.00   4.786041     0.8767E+00  -2.11515   5.28787
    6130.00   4.787460     0.8677E+00  -2.11960   5.29899
    6150.00   4.788875     0.8582E+00  -2.12438   5.31094
    6170.00   4.790285     0.8492E+00  -2.12896   5.32239
    6190.00   4.791691     0.8393E+00  -2.13408   5.33520
    6210.00   4.793092     0.8302E+00  -2.13879   5.34698
    6230.00   4.794488     0.8196E+00  -2.14436   5.36090
    6250.00   4.795880     0.8093E+00  -2.14986   5.37464
    6270.00   4.797267     0.8001E+00  -2.15483   5.38708
    6290.00   4.798651     0.7916E+00  -2.15949   5.39872
    6310.00   4.800029     0.7822E+00  -2.16467   5.41168
    6330.00   4.801404     0.7747E+00  -2.16883   5.42207
    6350.00   4.802773     0.7652E+00  -2.17422   5.43555
    6370.00   4.804139     0.7578E+00  -2.17844   5.44610
    6390.00   4.805501     0.7482E+00  -2.18395   5.45987
    6420.00   4.807535     0.7358E+00  -2.19120   5.47799
    6460.00   4.810232     0.7190E+00  -2.20123   5.50308
    6500.00   4.812913     0.7032E+00  -2.21090   5.52726
    6540.00   4.815578     0.6876E+00  -2.22064   5.55161
    6580.00   4.818226     0.6728E+00  -2.23006   5.57515
    6620.00   4.820858     0.6578E+00  -2.23988   5.59970
    6660.00   4.823474     0.6435E+00  -2.24941   5.62353
    6700.00   4.826075     0.6296E+00  -2.25889   5.64722
    6740.00   4.828660     0.6157E+00  -2.26858   5.67146
    6780.00   4.831230     0.6025E+00  -2.27800   5.69500
    6820.00   4.833784     0.5895E+00  -2.28749   5.71872
    6860.00   4.836324     0.5771E+00  -2.29672   5.74181
    6900.00   4.838849     0.5647E+00  -2.30617   5.76543
    6940.00   4.841359     0.5527E+00  -2.31545   5.78863
    6980.00   4.843855     0.5411E+00  -2.32467   5.81168
    7020.00   4.846337     0.5296E+00  -2.33405   5.83512
    7060.00   4.848804     0.5187E+00  -2.34307   5.85769
    7100.00   4.851258     0.5079E+00  -2.35224   5.88060
    7140.00   4.853698     0.4974E+00  -2.36128   5.90320
    7180.00   4.856124     0.4871E+00  -2.37039   5.92596
    7220.00   4.858537     0.4771E+00  -2.37936   5.94839
    7260.00   4.860937     0.4673E+00  -2.38837   5.97094
    7300.00   4.863323     0.4578E+00  -2.39726   5.99314
    7340.00   4.865696     0.4485E+00  -2.40623   6.01557
    7380.00   4.868056     0.4395E+00  -2.41499   6.03746
    7420.00   4.870404     0.4305E+00  -2.42403   6.06008
    7460.00   4.872739     0.4219E+00  -2.43280   6.08201
    7500.00   4.875061     0.4136E+00  -2.44143   6.10358
    7540.00   4.877371     0.4053E+00  -2.45020   6.12550
    7580.00   4.879669     0.3976E+00  -2.45858   6.14644
    7620.00   4.881955     0.3898E+00  -2.46717   6.16793
    7660.00   4.884229     0.3822E+00  -2.47572   6.18929
    7700.00   4.886491     0.3747E+00  -2.48429   6.21073
    7740.00   4.888741     0.3675E+00  -2.49271   6.23177
    7780.00   4.890980     0.3605E+00  -2.50111   6.25279
    7820.00   4.893207     0.3536E+00  -2.50952   6.27381
    7860.00   4.895422     0.3468E+00  -2.51786   6.29466
    7900.00   4.897627     0.3402E+00  -2.52618   6.31546
    7940.00   4.899820     0.3338E+00  -2.53446   6.33614
    7980.00   4.902003     0.3276E+00  -2.54267   6.35667
    8020.00   4.904174     0.3213E+00  -2.55100   6.37750
    8060.00   4.906335     0.3154E+00  -2.55915   6.39787
    8100.00   4.908485     0.3096E+00  -2.56719   6.41797
    8140.00   4.910625     0.3038E+00  -2.57534   6.43834
    8180.00   4.912753     0.2983E+00  -2.58330   6.45824
    8220.00   4.914872     0.2929E+00  -2.59129   6.47822
    8260.00   4.916980     0.2875E+00  -2.59929   6.49822
    8300.00   4.919078     0.2823E+00  -2.60722   6.51805
    8340.00   4.921166     0.2772E+00  -2.61523   6.53807
    8380.00   4.923244     0.2722E+00  -2.62311   6.55777
    8420.00   4.925312     0.2674E+00  -2.63083   6.57707
    8460.00   4.927370     0.2626E+00  -2.63867   6.59667
    8500.00   4.929419     0.2580E+00  -2.64641   6.61603
    8540.00   4.931458     0.2534E+00  -2.65412   6.63531
    8580.00   4.933487     0.2490E+00  -2.66179   6.65447
    8620.00   4.935507     0.2446E+00  -2.66944   6.67360
    8660.00   4.937518     0.2404E+00  -2.67703   6.69258
    8700.00   4.939519     0.2362E+00  -2.68464   6.71161
    8740.00   4.941511     0.2322E+00  -2.69220   6.73050
    8780.00   4.943495     0.2282E+00  -2.69974   6.74936
    8820.00   4.945469     0.2242E+00  -2.70730   6.76825
    8860.00   4.947433     0.2204E+00  -2.71474   6.78686
    8900.00   4.949390     0.2167E+00  -2.72221   6.80552
    8940.00   4.951338     0.2130E+00  -2.72954   6.82385
    8980.00   4.953277     0.2094E+00  -2.73704   6.84260
    9020.00   4.955207     0.2059E+00  -2.74425   6.86062
    9060.00   4.957129     0.2025E+00  -2.75152   6.87879
    9100.00   4.959042     0.1990E+00  -2.75902   6.89755
    9140.00   4.960946     0.1958E+00  -2.76612   6.91530
    9180.00   4.962843     0.1926E+00  -2.77333   6.93334
    9220.00   4.964731     0.1895E+00  -2.78043   6.95107
    9260.00   4.966611     0.1864E+00  -2.78761   6.96901
    9300.00   4.968483     0.1833E+00  -2.79472   6.98680
    9340.00   4.970347     0.1804E+00  -2.80183   7.00459
    9380.00   4.972203     0.1775E+00  -2.80888   7.02221
    9420.00   4.974051     0.1746E+00  -2.81593   7.03982
    9460.00   4.975891     0.1718E+00  -2.82297   7.05743
    9500.00   4.977724     0.1691E+00  -2.82995   7.07488
    9540.00   4.979548     0.1664E+00  -2.83690   7.09225
    9580.00   4.981365     0.1637E+00  -2.84381   7.10954
    9620.00   4.983175     0.1612E+00  -2.85073   7.12682
    9660.00   4.984977     0.1586E+00  -2.85758   7.14396
    9700.00   4.986772     0.1562E+00  -2.86442   7.16106
    9740.00   4.988559     0.1536E+00  -2.87144   7.17861
    9780.00   4.990339     0.1513E+00  -2.87811   7.19527
    9820.00   4.992111     0.1490E+00  -2.88482   7.21205
    9860.00   4.993877     0.1467E+00  -2.89156   7.22890
    9900.00   4.995635     0.1444E+00  -2.89826   7.24565
    9940.00   4.997386     0.1422E+00  -2.90498   7.26246
    9980.00   4.999130     0.1401E+00  -2.91164   7.27910
   10020.00   5.000868     0.1379E+00  -2.91827   7.29569
   20000.00   5.301030     0.9475E-02  -4.08138  10.20344
   40000.00   5.602060     0.6161E-03  -5.26830  13.17074
   60000.00   5.778151     0.1231E-03  -5.96782  14.91955
   80000.00   5.903090     0.3912E-04  -6.46562  16.16406
  100000.00   6.000000     0.1605E-04  -6.85239  17.13098
  120000.00   6.079181     0.7749E-05  -7.16874  17.92186
  140000.00   6.146128     0.4184E-05  -7.43642  18.59105
  160000.00   6.204120     0.2452E-05  -7.66841  19.17101
