age =   14.0    [Fe/H] =    0.25

wavele(nm) log wave(A)   Hlam       log(Hlam/Hlam(V))  Hlam(mag(V)) 
      90.50   2.956649     0.5091E-14 -16.32825  40.82062
      91.50   2.961421     0.1626E-12 -14.82398  37.05995
      92.50   2.966142     0.9342E-12 -14.06462  35.16156
      93.50   2.970812     0.1341E-11 -13.90766  34.76916
      94.50   2.975432     0.2050E-11 -13.72338  34.30845
      95.50   2.980003     0.3126E-11 -13.54007  33.85019
      96.50   2.984527     0.4947E-11 -13.34070  33.35176
      97.50   2.989005     0.6907E-11 -13.19580  32.98950
      98.50   2.993436     0.1003E-10 -13.03396  32.58491
      99.50   2.997823     0.1413E-10 -12.88507  32.21267
     100.50   3.002166     0.2133E-10 -12.70605  31.76513
     101.50   3.006466     0.3030E-10 -12.55365  31.38413
     102.50   3.010724     0.3739E-10 -12.46234  31.15585
     103.50   3.014940     0.6062E-10 -12.25245  30.63113
     104.50   3.019116     0.8602E-10 -12.10049  30.25123
     105.50   3.023252     0.1113E-09 -11.98874  29.97185
     106.50   3.027350     0.1574E-09 -11.83813  29.59533
     107.50   3.031409     0.2163E-09 -11.70000  29.25001
     108.50   3.035430     0.2951E-09 -11.56507  28.91267
     109.50   3.039414     0.3752E-09 -11.46086  28.65216
     110.50   3.043362     0.5603E-09 -11.28665  28.21663
     111.50   3.047275     0.7737E-09 -11.14651  27.86627
     112.50   3.051152     0.1076E-08 -11.00319  27.50797
     113.50   3.054996     0.1533E-08 -10.84955  27.12388
     114.50   3.058805     0.2051E-08 -10.72304  26.80759
     115.50   3.062582     0.2611E-08 -10.61833  26.54583
     116.50   3.066326     0.3481E-08 -10.49333  26.23333
     117.50   3.070038     0.4580E-08 -10.37421  25.93552
     118.50   3.073718     0.5621E-08 -10.28524  25.71309
     119.50   3.077368     0.6448E-08 -10.22562  25.56405
     120.50   3.080987     0.7906E-08 -10.13711  25.34277
     121.50   3.084576     0.5717E-08 -10.27787  25.69468
     122.50   3.088136     0.1207E-07  -9.95328  24.88319
     123.50   3.091667     0.1737E-07  -9.79538  24.48845
     124.50   3.095169     0.2183E-07  -9.69610  24.24026
     125.50   3.098644     0.2649E-07  -9.61201  24.03003
     126.50   3.102091     0.3178E-07  -9.53287  23.83217
     127.50   3.105510     0.3895E-07  -9.44462  23.61155
     128.50   3.108903     0.4514E-07  -9.38052  23.45129
     129.50   3.112270     0.5538E-07  -9.29170  23.22925
     130.50   3.115611     0.6445E-07  -9.22584  23.06460
     131.50   3.118926     0.8034E-07  -9.13014  22.82536
     132.50   3.122216     0.9075E-07  -9.07725  22.69312
     133.50   3.125481     0.1063E-06  -9.00863  22.52157
     134.50   3.128722     0.1298E-06  -8.92166  22.30416
     135.50   3.131939     0.1585E-06  -8.83492  22.08731
     136.50   3.135133     0.1815E-06  -8.77618  21.94045
     137.50   3.138303     0.2104E-06  -8.71204  21.78009
     138.50   3.141450     0.2439E-06  -8.64787  21.61967
     139.50   3.144574     0.2866E-06  -8.57782  21.44455
     140.50   3.147676     0.3520E-06  -8.48848  21.22121
     141.50   3.150756     0.4164E-06  -8.41554  21.03886
     142.50   3.153815     0.4948E-06  -8.34067  20.85167
     143.50   3.156852     0.5963E-06  -8.25964  20.64911
     144.20   3.158965     0.7183E-06  -8.17875  20.44687
     144.70   3.160469     0.7181E-06  -8.17889  20.44722
     145.50   3.162863     0.8364E-06  -8.11266  20.28165
     146.50   3.165838     0.1040E-05  -8.01799  20.04497
     147.50   3.168792     0.1214E-05  -7.95080  19.87701
     148.50   3.171726     0.1377E-05  -7.89629  19.74072
     149.50   3.174641     0.1717E-05  -7.80041  19.50104
     150.50   3.177536     0.2075E-05  -7.71800  19.29500
     151.20   3.179552     0.1932E-05  -7.74900  19.37251
     151.70   3.180986     0.2263E-05  -7.68032  19.20081
     152.50   3.183270     0.4356E-05  -7.39595  18.48987
     153.50   3.186108     0.6965E-05  -7.19218  17.98045
     154.50   3.188928     0.6110E-05  -7.24904  18.12261
     155.50   3.191730     0.9833E-05  -7.04238  17.60594
     156.50   3.194514     0.9749E-05  -7.04612  17.61531
     157.50   3.197281     0.2098E-04  -6.71336  16.78340
     158.50   3.200029     0.2538E-04  -6.63060  16.57650
     159.50   3.202761     0.2994E-04  -6.55887  16.39717
     160.50   3.205475     0.3178E-04  -6.53293  16.33233
     161.50   3.208173     0.3476E-04  -6.49397  16.23493
     162.50   3.210853     0.3956E-04  -6.43782  16.09456
     163.50   3.213518     0.5008E-04  -6.33542  15.83856
     164.50   3.216166     0.7177E-04  -6.17916  15.44789
     165.50   3.218798     0.5191E-04  -6.31983  15.79958
     166.50   3.221414     0.8754E-04  -6.09286  15.23216
     167.20   3.223236     0.6239E-04  -6.23997  15.59993
     167.70   3.224533     0.2456E-03  -5.64478  14.11195
     168.50   3.226600     0.2764E-03  -5.59349  13.98373
     169.50   3.229170     0.3563E-03  -5.48331  13.70827
     170.50   3.231725     0.3809E-03  -5.45422  13.63556
     171.50   3.234264     0.3670E-03  -5.47037  13.67592
     172.50   3.236789     0.5068E-03  -5.33027  13.32568
     173.50   3.239300     0.6109E-03  -5.24914  13.12284
     174.50   3.241796     0.8679E-03  -5.09663  12.74156
     175.50   3.244277     0.1143E-02  -4.97684  12.44210
     176.50   3.246745     0.1120E-02  -4.98596  12.46490
     177.50   3.249198     0.1171E-02  -4.96637  12.41594
     178.50   3.251638     0.1653E-02  -4.81686  12.04216
     179.50   3.254065     0.1868E-02  -4.76364  11.90909
     180.50   3.256477     0.2217E-02  -4.68925  11.72313
     181.50   3.258877     0.2038E-02  -4.72597  11.81492
     182.50   3.261263     0.2767E-02  -4.59314  11.48285
     183.50   3.263636     0.2815E-02  -4.58553  11.46381
     184.50   3.265996     0.2236E-02  -4.68557  11.71392
     185.50   3.268344     0.3048E-02  -4.55103  11.37757
     186.50   3.270679     0.3708E-02  -4.46588  11.16470
     187.50   3.273001     0.4022E-02  -4.43059  11.07647
     188.50   3.275311     0.4406E-02  -4.39104  10.97761
     189.50   3.277609     0.5929E-02  -4.26206  10.65515
     190.50   3.279895     0.5747E-02  -4.27561  10.68902
     191.50   3.282169     0.6668E-02  -4.21107  10.52767
     192.50   3.284431     0.6687E-02  -4.20983  10.52457
     193.50   3.286681     0.4485E-02  -4.38331  10.95827
     194.50   3.288920     0.8729E-02  -4.09413  10.23533
     195.50   3.291147     0.9617E-02  -4.05203  10.13008
     196.70   3.293804     0.1230E-01  -3.94499   9.86249
     197.60   3.295787     0.1246E-01  -3.93959   9.84897
     198.40   3.297542     0.1404E-01  -3.88762   9.71906
     199.50   3.299943     0.1418E-01  -3.88342   9.70855
     200.50   3.302114     0.1418E-01  -3.88338   9.70844
     201.50   3.304275     0.1594E-01  -3.83252   9.58130
     202.50   3.306425     0.1299E-01  -3.92146   9.80365
     203.50   3.308564     0.1793E-01  -3.78153   9.45382
     204.50   3.310693     0.2057E-01  -3.72191   9.30478
     205.50   3.312812     0.2222E-01  -3.68842   9.22104
     206.50   3.314920     0.2230E-01  -3.68675   9.21689
     207.40   3.316809     0.2352E-01  -3.66369   9.15923
     207.80   3.317646     0.4943E-01  -3.34110   8.35276
     208.50   3.319106     0.6307E-01  -3.23526   8.08816
     209.50   3.321184     0.6129E-01  -3.24766   8.11915
     210.50   3.323252     0.6343E-01  -3.23275   8.08188
     211.50   3.325310     0.7508E-01  -3.15956   7.89890
     212.50   3.327359     0.6897E-01  -3.19642   7.99106
     213.50   3.329398     0.7696E-01  -3.14883   7.87206
     214.50   3.331427     0.9016E-01  -3.08007   7.70018
     215.50   3.333447     0.8423E-01  -3.10962   7.77405
     216.50   3.335458     0.8100E-01  -3.12658   7.81646
     217.50   3.337459     0.8196E-01  -3.12146   7.80364
     218.50   3.339452     0.1015E+00  -3.02866   7.57165
     219.50   3.341434     0.1080E+00  -3.00168   7.50419
     220.50   3.343409     0.1110E+00  -2.98992   7.47481
     221.50   3.345374     0.9360E-01  -3.06381   7.65953
     222.50   3.347330     0.1147E+00  -2.97560   7.43900
     223.50   3.349277     0.1608E+00  -2.82883   7.07208
     224.50   3.351216     0.1617E+00  -2.82641   7.06602
     225.50   3.353147     0.1378E+00  -2.89586   7.23964
     226.50   3.355068     0.1110E+00  -2.98991   7.47477
     227.50   3.356982     0.1289E+00  -2.92483   7.31208
     228.50   3.358886     0.1882E+00  -2.76043   6.90108
     229.50   3.360783     0.1636E+00  -2.82131   7.05328
     230.50   3.362671     0.1709E+00  -2.80222   7.00555
     231.50   3.364551     0.1790E+00  -2.78226   6.95565
     232.50   3.366423     0.1776E+00  -2.78562   6.96404
     233.50   3.368287     0.1913E+00  -2.75325   6.88313
     234.50   3.370143     0.1309E+00  -2.91813   7.29533
     235.50   3.371991     0.1991E+00  -2.73609   6.84022
     236.50   3.373831     0.1529E+00  -2.85075   7.12687
     237.50   3.375664     0.1847E+00  -2.76872   6.92180
     238.50   3.377488     0.1428E+00  -2.88046   7.20114
     239.50   3.379306     0.1700E+00  -2.80462   7.01156
     240.50   3.381115     0.1953E+00  -2.74436   6.86090
     241.50   3.382917     0.1767E+00  -2.78777   6.96942
     242.50   3.384712     0.2768E+00  -2.59287   6.48218
     243.50   3.386499     0.3055E+00  -2.55013   6.37533
     244.50   3.388279     0.3771E+00  -2.45858   6.14646
     245.50   3.390052     0.4114E+00  -2.42080   6.05201
     246.50   3.391817     0.3169E+00  -2.53415   6.33539
     247.50   3.393575     0.2970E+00  -2.56228   6.40571
     248.50   3.395326     0.1253E+00  -2.93726   7.34314
     249.50   3.397071     0.1910E+00  -2.75410   6.88524
     250.50   3.398808     0.3258E+00  -2.52206   6.30516
     251.30   3.400192     0.1689E+00  -2.80751   7.01878
     251.80   3.401056     0.1197E+00  -2.95698   7.39245
     252.50   3.402261     0.1381E+00  -2.89484   7.23710
     253.50   3.403978     0.3197E+00  -2.53033   6.32582
     254.50   3.405688     0.3362E+00  -2.50852   6.27129
     255.50   3.407391     0.7947E+00  -2.13486   5.33715
     256.50   3.409087     0.5474E+00  -2.29680   5.74200
     257.50   3.410777     0.8002E+00  -2.13190   5.32974
     258.50   3.412461     0.7304E+00  -2.17148   5.42871
     259.50   3.414137     0.7032E+00  -2.18802   5.47004
     260.50   3.415808     0.6694E+00  -2.20941   5.52352
     261.50   3.417472     0.5980E+00  -2.25839   5.64596
     262.50   3.419129     0.8430E+00  -2.10923   5.27307
     263.50   3.420781     0.1711E+01  -1.80180   4.50450
     264.50   3.422426     0.2106E+01  -1.71154   4.27884
     265.50   3.424065     0.3820E+01  -1.45301   3.63252
     266.50   3.425697     0.1991E+01  -1.73606   4.34014
     267.50   3.427324     0.2178E+01  -1.69709   4.24274
     268.50   3.428944     0.2886E+01  -1.57481   3.93704
     269.50   3.430559     0.1713E+01  -1.80129   4.50323
     270.50   3.432167     0.2540E+01  -1.63018   4.07546
     271.50   3.433770     0.1676E+01  -1.81077   4.52694
     272.50   3.435366     0.9893E+00  -2.03975   5.09937
     273.50   3.436957     0.1455E+01  -1.87234   4.68084
     274.50   3.438542     0.1023E+01  -2.02501   5.06251
     275.50   3.440122     0.1426E+01  -1.88088   4.70219
     276.50   3.441695     0.1968E+01  -1.74107   4.35267
     277.50   3.443263     0.2122E+01  -1.70830   4.27074
     278.50   3.444825     0.1265E+01  -1.93300   4.83250
     279.50   3.446382     0.6146E+00  -2.24651   5.61627
     280.50   3.447933     0.7514E+00  -2.15923   5.39807
     281.50   3.449478     0.1887E+01  -1.75940   4.39850
     282.50   3.451018     0.2529E+01  -1.63219   4.08047
     283.50   3.452553     0.2065E+01  -1.72009   4.30024
     284.50   3.454082     0.1160E+01  -1.97058   4.92644
     285.50   3.455606     0.5512E+00  -2.29378   5.73444
     286.50   3.457125     0.1727E+01  -1.79771   4.49427
     287.50   3.458638     0.3241E+01  -1.52446   3.81115
     288.50   3.460146     0.3357E+01  -1.50910   3.77274
     289.50   3.461648     0.5004E+01  -1.33572   3.33931
     291.00   3.463893     0.8037E+01  -1.12998   2.82495
     293.00   3.466868     0.7147E+01  -1.18097   2.95244
     295.00   3.469822     0.6573E+01  -1.21731   3.04326
     297.00   3.472756     0.6855E+01  -1.19905   2.99762
     299.00   3.475671     0.7200E+01  -1.17776   2.94440
     301.00   3.478566     0.6812E+01  -1.20179   3.00448
     303.00   3.481443     0.8189E+01  -1.12187   2.80466
     305.00   3.484300     0.8426E+01  -1.10944   2.77359
     307.00   3.487138     0.9805E+01  -1.04362   2.60905
     309.00   3.489959     0.8680E+01  -1.09655   2.74138
     311.00   3.492760     0.1189E+02  -0.95994   2.39984
     313.00   3.495544     0.1025E+02  -1.02443   2.56107
     315.00   3.498311     0.1103E+02  -0.99231   2.48077
     317.00   3.501059     0.1300E+02  -0.92107   2.30268
     319.00   3.503791     0.1052E+02  -1.01291   2.53228
     321.00   3.506505     0.1162E+02  -0.96993   2.42483
     323.00   3.509202     0.9768E+01  -1.04529   2.61322
     325.00   3.511883     0.1556E+02  -0.84300   2.10751
     327.00   3.514548     0.1886E+02  -0.75954   1.89886
     329.00   3.517196     0.1885E+02  -0.75977   1.89942
     331.00   3.519828     0.1661E+02  -0.81481   2.03703
     333.00   3.522444     0.1763E+02  -0.78887   1.97217
     335.00   3.525045     0.1691E+02  -0.80686   2.01714
     337.00   3.527630     0.1127E+02  -0.98298   2.45744
     339.00   3.530200     0.1344E+02  -0.90674   2.26686
     341.00   3.532754     0.1408E+02  -0.88632   2.21581
     343.00   3.535294     0.1530E+02  -0.85038   2.12595
     345.00   3.537819     0.1703E+02  -0.80389   2.00972
     347.00   3.540329     0.1809E+02  -0.77759   1.94397
     349.00   3.542825     0.2134E+02  -0.70593   1.76482
     351.00   3.545307     0.2317E+02  -0.67015   1.67538
     353.00   3.547775     0.1960E+02  -0.74272   1.85681
     355.00   3.550228     0.2244E+02  -0.68412   1.71031
     357.00   3.552668     0.1418E+02  -0.88348   2.20871
     359.00   3.555094     0.1561E+02  -0.84165   2.10413
     361.00   3.557507     0.2163E+02  -0.70006   1.75015
     363.00   3.559907     0.2344E+02  -0.66509   1.66273
     364.00   3.561101     0.2386E+02  -0.65741   1.64354
     365.00   3.562293     0.2668E+02  -0.60886   1.52215
     367.00   3.564666     0.3012E+02  -0.55625   1.39062
     369.00   3.567026     0.2517E+02  -0.63414   1.58536
     371.00   3.569374     0.2565E+02  -0.62600   1.56499
     373.00   3.571709     0.1356E+02  -0.90268   2.25671
     375.00   3.574031     0.1611E+02  -0.82790   2.06974
     377.00   3.576341     0.2455E+02  -0.64501   1.61253
     379.00   3.578639     0.2525E+02  -0.63273   1.58183
     381.00   3.580925     0.2181E+02  -0.69649   1.74123
     383.00   3.583199     0.1049E+02  -1.01431   2.53576
     385.00   3.585461     0.1489E+02  -0.86210   2.15525
     387.00   3.587711     0.1504E+02  -0.85783   2.14457
     389.00   3.589950     0.2293E+02  -0.67469   1.68672
     391.00   3.592177     0.2998E+02  -0.55820   1.39550
     393.00   3.594393     0.1304E+02  -0.91975   2.29938
     395.00   3.596597     0.2509E+02  -0.63563   1.58907
     397.00   3.598790     0.1706E+02  -0.80303   2.00758
     399.00   3.600973     0.4371E+02  -0.39453   0.98631
     401.00   3.603144     0.5007E+02  -0.33552   0.83881
     403.00   3.605305     0.4868E+02  -0.34772   0.86929
     405.00   3.607455     0.4615E+02  -0.37090   0.92726
     407.00   3.609594     0.4203E+02  -0.41156   1.02891
     409.00   3.611723     0.5802E+02  -0.27146   0.67865
     411.00   3.613842     0.5380E+02  -0.30426   0.76066
     413.00   3.615950     0.5000E+02  -0.33611   0.84028
     415.00   3.618048     0.4811E+02  -0.35288   0.88220
     417.00   3.620136     0.4957E+02  -0.33982   0.84955
     419.00   3.622214     0.4918E+02  -0.34327   0.85818
     421.00   3.624282     0.4983E+02  -0.33754   0.84386
     423.00   3.626340     0.4427E+02  -0.38897   0.97242
     425.00   3.628389     0.5213E+02  -0.31794   0.79486
     427.00   3.630428     0.4872E+02  -0.34739   0.86847
     429.00   3.632457     0.4582E+02  -0.37401   0.93503
     431.00   3.634477     0.4067E+02  -0.42578   1.06444
     433.00   3.636488     0.6370E+02  -0.23093   0.57731
     435.00   3.638489     0.6585E+02  -0.21653   0.54133
     437.00   3.640481     0.7157E+02  -0.18037   0.45092
     439.00   3.642465     0.6041E+02  -0.25399   0.63497
     441.00   3.644439     0.6410E+02  -0.22820   0.57050
     443.00   3.646404     0.7023E+02  -0.18852   0.47130
     445.00   3.648360     0.7209E+02  -0.17718   0.44295
     447.00   3.650307     0.7929E+02  -0.13588   0.33969
     449.00   3.652246     0.8267E+02  -0.11774   0.29435
     451.00   3.654176     0.9852E+02  -0.04154   0.10384
     453.00   3.656098     0.8195E+02  -0.12154   0.30384
     455.00   3.658011     0.8787E+02  -0.09122   0.22804
     457.00   3.659916     0.9767E+02  -0.04533   0.11332
     459.00   3.661813     0.9095E+02  -0.07625   0.19064
     461.00   3.663701     0.9398E+02  -0.06203   0.15508
     463.00   3.665581     0.9053E+02  -0.07829   0.19572
     465.00   3.667453     0.9207E+02  -0.07094   0.17736
     467.00   3.669317     0.9834E+02  -0.04234   0.10586
     469.00   3.671173     0.9608E+02  -0.05245   0.13113
     471.00   3.673021     0.9289E+02  -0.06709   0.16773
     473.00   3.674861     0.9642E+02  -0.05092   0.12729
     475.00   3.676694     0.9936E+02  -0.03785   0.09462
     477.00   3.678518     0.9590E+02  -0.05323   0.13308
     479.00   3.680336     0.9775E+02  -0.04495   0.11237
     481.00   3.682145     0.9872E+02  -0.04065   0.10163
     483.00   3.683947     0.1038E+03  -0.01897   0.04743
     485.00   3.685742     0.9873E+02  -0.04063   0.10157
     487.00   3.687529     0.9067E+02  -0.07759   0.19399
     489.00   3.689309     0.1007E+03  -0.03204   0.08010
     491.00   3.691082     0.1014E+03  -0.02893   0.07234
     493.00   3.692847     0.9888E+02  -0.03995   0.09987
     495.00   3.694605     0.1030E+03  -0.02229   0.05573
     497.00   3.696356     0.9722E+02  -0.04730   0.11825
     499.00   3.698101     0.8938E+02  -0.08384   0.20961
     501.00   3.699838     0.8240E+02  -0.11917   0.29793
     503.00   3.701568     0.8988E+02  -0.08141   0.20353
     505.00   3.703291     0.8956E+02  -0.08295   0.20737
     507.00   3.705008     0.9402E+02  -0.06187   0.15468
     509.00   3.706718     0.8757E+02  -0.09272   0.23179
     511.00   3.708421     0.9085E+02  -0.07675   0.19188
     513.00   3.710117     0.8703E+02  -0.09538   0.23846
     515.00   3.711807     0.8344E+02  -0.11372   0.28430
     517.00   3.713490     0.7117E+02  -0.18279   0.45697
     519.00   3.715167     0.7591E+02  -0.15476   0.38690
     521.00   3.716838     0.8637E+02  -0.09872   0.24681
     523.00   3.718502     0.9967E+02  -0.03649   0.09122
     525.00   3.720159     0.1065E+03  -0.00772   0.01929
     527.00   3.721811     0.8983E+02  -0.08163   0.20408
     529.00   3.723456     0.1100E+03   0.00612  -0.01531
     531.00   3.725095     0.1198E+03   0.04333  -0.10832
     533.00   3.726727     0.1004E+03  -0.03336   0.08341
     535.00   3.728354     0.1144E+03   0.02317  -0.05793
     537.00   3.729974     0.1129E+03   0.01774  -0.04434
     539.00   3.731589     0.1097E+03   0.00524  -0.01309
     541.00   3.733197     0.1085E+03   0.00043  -0.00106
     543.00   3.734800     0.1105E+03   0.00825  -0.02062
     545.00   3.736397     0.1119E+03   0.01383  -0.03459
     547.00   3.737987     0.1092E+03   0.00327  -0.00817
     549.00   3.739572     0.1104E+03   0.00795  -0.01989
     551.00   3.741152     0.1084E+03   0.00000   0.00000
     553.00   3.742725     0.1151E+03   0.02592  -0.06479
     555.00   3.744293     0.1180E+03   0.03678  -0.09195
     557.00   3.745855     0.1156E+03   0.02772  -0.06931
     559.00   3.747412     0.1112E+03   0.01114  -0.02784
     561.00   3.748963     0.1156E+03   0.02799  -0.06999
     563.00   3.750508     0.1150E+03   0.02573  -0.06431
     565.00   3.752048     0.1184E+03   0.03826  -0.09564
     567.00   3.753583     0.1154E+03   0.02723  -0.06809
     569.00   3.755112     0.1208E+03   0.04693  -0.11733
     571.00   3.756636     0.1159E+03   0.02916  -0.07291
     573.00   3.758155     0.1291E+03   0.07582  -0.18954
     575.00   3.759668     0.1230E+03   0.05501  -0.13751
     577.00   3.761176     0.1247E+03   0.06082  -0.15206
     579.00   3.762679     0.1186E+03   0.03901  -0.09752
     581.00   3.764176     0.1252E+03   0.06260  -0.15651
     583.00   3.765669     0.1301E+03   0.07913  -0.19783
     585.00   3.767156     0.1238E+03   0.05758  -0.14395
     587.00   3.768638     0.1226E+03   0.05329  -0.13322
     589.00   3.770115     0.9959E+02  -0.03685   0.09214
     591.00   3.771587     0.1193E+03   0.04160  -0.10400
     593.00   3.773055     0.1220E+03   0.05114  -0.12786
     595.00   3.774517     0.1225E+03   0.05298  -0.13244
     597.00   3.775974     0.1259E+03   0.06502  -0.16255
     599.00   3.777427     0.1236E+03   0.05712  -0.14279
     601.00   3.778874     0.1223E+03   0.05228  -0.13070
     603.00   3.780317     0.1275E+03   0.07033  -0.17583
     605.00   3.781755     0.1307E+03   0.08104  -0.20261
     607.00   3.783189     0.1306E+03   0.08093  -0.20232
     609.00   3.784617     0.1250E+03   0.06171  -0.15428
     611.00   3.786041     0.1259E+03   0.06506  -0.16264
     613.00   3.787461     0.1173E+03   0.03417  -0.08541
     615.00   3.788875     0.1216E+03   0.04980  -0.12449
     617.00   3.790285     0.1102E+03   0.00703  -0.01758
     619.00   3.791691     0.1196E+03   0.04277  -0.10694
     621.00   3.793092     0.1175E+03   0.03514  -0.08784
     623.00   3.794488     0.1128E+03   0.01708  -0.04271
     625.00   3.795880     0.1095E+03   0.00417  -0.01043
     627.00   3.797267     0.1160E+03   0.02953  -0.07382
     629.00   3.798651     0.1203E+03   0.04518  -0.11294
     631.00   3.800029     0.1172E+03   0.03386  -0.08464
     633.00   3.801404     0.1197E+03   0.04317  -0.10793
     635.00   3.802774     0.1198E+03   0.04343  -0.10858
     637.00   3.804139     0.1198E+03   0.04332  -0.10829
     639.00   3.805501     0.1242E+03   0.05890  -0.14725
     641.00   3.806858     0.1215E+03   0.04944  -0.12359
     643.00   3.808211     0.1229E+03   0.05445  -0.13613
     645.00   3.809560     0.1222E+03   0.05188  -0.12970
     647.00   3.810904     0.1221E+03   0.05160  -0.12901
     649.00   3.812245     0.1198E+03   0.04354  -0.10884
     651.00   3.813581     0.1258E+03   0.06476  -0.16190
     653.00   3.814913     0.1262E+03   0.06603  -0.16508
     655.00   3.816241     0.1239E+03   0.05817  -0.14541
     657.00   3.817565     0.1197E+03   0.04286  -0.10716
     659.00   3.818885     0.1236E+03   0.05683  -0.14206
     661.00   3.820201     0.1246E+03   0.06030  -0.15075
     663.00   3.821513     0.1221E+03   0.05176  -0.12939
     665.00   3.822822     0.1213E+03   0.04882  -0.12204
     667.00   3.824126     0.1169E+03   0.03261  -0.08152
     669.00   3.825426     0.1173E+03   0.03439  -0.08598
     671.00   3.826723     0.1107E+03   0.00923  -0.02307
     673.00   3.828015     0.1142E+03   0.02250  -0.05624
     675.00   3.829304     0.1117E+03   0.01299  -0.03246
     677.00   3.830589     0.1124E+03   0.01587  -0.03969
     679.00   3.831870     0.1107E+03   0.00891  -0.02228
     681.00   3.833147     0.1123E+03   0.01513  -0.03781
     683.00   3.834421     0.1147E+03   0.02434  -0.06086
     685.00   3.835690     0.1116E+03   0.01242  -0.03105
     687.00   3.836957     0.1144E+03   0.02339  -0.05847
     689.00   3.838219     0.1176E+03   0.03543  -0.08858
     691.00   3.839478     0.1190E+03   0.04059  -0.10146
     693.00   3.840733     0.1186E+03   0.03884  -0.09710
     695.00   3.841985     0.1200E+03   0.04398  -0.10995
     697.00   3.843233     0.1235E+03   0.05657  -0.14144
     699.00   3.844477     0.1242E+03   0.05914  -0.14785
     701.00   3.845718     0.1244E+03   0.05961  -0.14904
     703.00   3.846955     0.1264E+03   0.06674  -0.16686
     705.00   3.848189     0.1244E+03   0.05973  -0.14932
     707.00   3.849419     0.1168E+03   0.03244  -0.08111
     709.00   3.850646     0.1085E+03   0.00047  -0.00117
     711.00   3.851870     0.1035E+03  -0.02002   0.05005
     713.00   3.853090     0.1001E+03  -0.03451   0.08626
     715.00   3.854306     0.9955E+02  -0.03702   0.09255
     717.00   3.855519     0.1019E+03  -0.02693   0.06733
     719.00   3.856729     0.9976E+02  -0.03613   0.09033
     721.00   3.857935     0.1035E+03  -0.02027   0.05068
     723.00   3.859138     0.1078E+03  -0.00239   0.00597
     725.00   3.860338     0.1101E+03   0.00665  -0.01663
     727.00   3.861534     0.1123E+03   0.01533  -0.03832
     729.00   3.862728     0.1130E+03   0.01791  -0.04476
     731.00   3.863917     0.1198E+03   0.04350  -0.10875
     733.00   3.865104     0.1205E+03   0.04580  -0.11450
     735.00   3.866287     0.1254E+03   0.06320  -0.15799
     737.00   3.867467     0.1314E+03   0.08366  -0.20914
     739.00   3.868644     0.1289E+03   0.07509  -0.18772
     741.00   3.869818     0.1327E+03   0.08794  -0.21984
     743.00   3.870989     0.1372E+03   0.10236  -0.25591
     745.00   3.872156     0.1360E+03   0.09855  -0.24637
     747.00   3.873321     0.1431E+03   0.12046  -0.30116
     749.00   3.874482     0.1427E+03   0.11950  -0.29875
     751.00   3.875640     0.1443E+03   0.12422  -0.31054
     753.00   3.876795     0.1494E+03   0.13932  -0.34831
     755.00   3.877947     0.1514E+03   0.14497  -0.36244
     757.00   3.879096     0.1525E+03   0.14820  -0.37049
     759.00   3.880242     0.1445E+03   0.12469  -0.31171
     761.00   3.881385     0.1374E+03   0.10305  -0.25762
     763.00   3.882524     0.1293E+03   0.07653  -0.19133
     765.00   3.883662     0.1208E+03   0.04715  -0.11787
     767.00   3.884795     0.1113E+03   0.01160  -0.02901
     769.00   3.885926     0.1139E+03   0.02152  -0.05380
     771.00   3.887054     0.1119E+03   0.01358  -0.03396
     773.00   3.888180     0.1119E+03   0.01384  -0.03461
     775.00   3.889302     0.1113E+03   0.01125  -0.02812
     777.00   3.890421     0.1134E+03   0.01936  -0.04840
     779.00   3.891537     0.1146E+03   0.02411  -0.06027
     781.00   3.892651     0.1149E+03   0.02527  -0.06318
     783.00   3.893762     0.1149E+03   0.02518  -0.06295
     785.00   3.894870     0.1130E+03   0.01788  -0.04470
     787.00   3.895975     0.1161E+03   0.02994  -0.07485
     789.00   3.897077     0.1156E+03   0.02806  -0.07016
     791.00   3.898176     0.1121E+03   0.01454  -0.03635
     793.00   3.899273     0.1139E+03   0.02163  -0.05407
     795.00   3.900367     0.1137E+03   0.02079  -0.05197
     797.00   3.901458     0.1181E+03   0.03717  -0.09292
     799.00   3.902547     0.1186E+03   0.03919  -0.09796
     801.00   3.903632     0.1226E+03   0.05352  -0.13379
     803.00   3.904716     0.1244E+03   0.05977  -0.14944
     805.00   3.905796     0.1246E+03   0.06053  -0.15133
     807.00   3.906873     0.1303E+03   0.07989  -0.19971
     809.00   3.907948     0.1305E+03   0.08053  -0.20133
     811.00   3.909021     0.1333E+03   0.08972  -0.22429
     813.00   3.910090     0.1408E+03   0.11356  -0.28390
     815.00   3.911158     0.1454E+03   0.12740  -0.31850
     817.00   3.912222     0.1481E+03   0.13536  -0.33840
     819.00   3.913284     0.1457E+03   0.12833  -0.32083
     821.00   3.914343     0.1354E+03   0.09670  -0.24175
     823.00   3.915400     0.1361E+03   0.09885  -0.24713
     825.00   3.916454     0.1352E+03   0.09604  -0.24011
     827.00   3.917506     0.1359E+03   0.09808  -0.24519
     829.00   3.918555     0.1337E+03   0.09096  -0.22739
     831.00   3.919601     0.1283E+03   0.07327  -0.18317
     833.00   3.920645     0.1269E+03   0.06840  -0.17101
     835.00   3.921686     0.1264E+03   0.06682  -0.16705
     837.00   3.922725     0.1277E+03   0.07117  -0.17791
     839.00   3.923762     0.1236E+03   0.05680  -0.14199
     841.00   3.924796     0.1279E+03   0.07191  -0.17978
     843.00   3.925828     0.1221E+03   0.05156  -0.12889
     845.00   3.926857     0.1130E+03   0.01799  -0.04497
     847.00   3.927883     0.1128E+03   0.01728  -0.04320
     849.00   3.928908     0.1146E+03   0.02424  -0.06061
     851.00   3.929929     0.1094E+03   0.00385  -0.00963
     853.00   3.930949     0.1136E+03   0.02020  -0.05050
     855.00   3.931966     0.1069E+03  -0.00622   0.01556
     857.00   3.932981     0.1203E+03   0.04502  -0.11256
     859.00   3.933993     0.1197E+03   0.04307  -0.10767
     861.00   3.935003     0.1232E+03   0.05537  -0.13843
     863.00   3.936011     0.1266E+03   0.06735  -0.16836
     865.00   3.937016     0.1273E+03   0.06977  -0.17443
     867.00   3.938019     0.1160E+03   0.02941  -0.07353
     869.00   3.939020     0.1272E+03   0.06954  -0.17386
     871.00   3.940018     0.1331E+03   0.08921  -0.22303
     873.00   3.941014     0.1353E+03   0.09616  -0.24040
     875.00   3.942008     0.1351E+03   0.09573  -0.23933
     877.00   3.943000     0.1371E+03   0.10200  -0.25501
     879.00   3.943989     0.1433E+03   0.12130  -0.30325
     881.00   3.944976     0.1421E+03   0.11755  -0.29387
     883.00   3.945961     0.1439E+03   0.12310  -0.30776
     885.00   3.946943     0.1394E+03   0.10909  -0.27271
     887.00   3.947924     0.1307E+03   0.08118  -0.20294
     889.00   3.948902     0.1300E+03   0.07887  -0.19717
     891.00   3.949878     0.1324E+03   0.08688  -0.21719
     893.00   3.950851     0.1308E+03   0.08160  -0.20400
     895.00   3.951823     0.1322E+03   0.08621  -0.21553
     897.00   3.952792     0.1328E+03   0.08820  -0.22050
     899.00   3.953760     0.1334E+03   0.09011  -0.22527
     901.00   3.954725     0.1318E+03   0.08470  -0.21174
     903.00   3.955688     0.1389E+03   0.10756  -0.26891
     905.00   3.956649     0.1453E+03   0.12724  -0.31810
     907.00   3.957607     0.1487E+03   0.13722  -0.34306
     909.00   3.958564     0.1492E+03   0.13869  -0.34673
     911.00   3.959518     0.1521E+03   0.14708  -0.36771
     913.00   3.960471     0.1547E+03   0.15431  -0.38578
     915.00   3.961421     0.1537E+03   0.15161  -0.37903
     917.00   3.962369     0.1542E+03   0.15302  -0.38256
     919.00   3.963315     0.1562E+03   0.15870  -0.39675
     921.00   3.964260     0.1461E+03   0.12958  -0.32396
     923.00   3.965202     0.1426E+03   0.11905  -0.29762
     925.00   3.966142     0.1395E+03   0.10959  -0.27398
     927.00   3.967080     0.1431E+03   0.12055  -0.30137
     929.00   3.968016     0.1364E+03   0.09985  -0.24963
     931.00   3.968950     0.1371E+03   0.10197  -0.25493
     933.00   3.969882     0.1396E+03   0.10971  -0.27426
     935.00   3.970812     0.1396E+03   0.10988  -0.27470
     937.00   3.971740     0.1355E+03   0.09680  -0.24200
     939.00   3.972666     0.1405E+03   0.11254  -0.28134
     941.00   3.973590     0.1401E+03   0.11135  -0.27839
     943.00   3.974512     0.1432E+03   0.12078  -0.30196
     945.00   3.975432     0.1427E+03   0.11930  -0.29824
     947.00   3.976350     0.1476E+03   0.13392  -0.33480
     949.00   3.977266     0.1489E+03   0.13778  -0.34444
     951.00   3.978180     0.1417E+03   0.11624  -0.29061
     953.00   3.979093     0.1460E+03   0.12918  -0.32295
     955.00   3.980003     0.1455E+03   0.12773  -0.31931
     957.00   3.980912     0.1481E+03   0.13543  -0.33858
     959.00   3.981819     0.1499E+03   0.14074  -0.35185
     961.00   3.982723     0.1486E+03   0.13700  -0.34249
     963.00   3.983626     0.1515E+03   0.14529  -0.36321
     965.00   3.984527     0.1498E+03   0.14033  -0.35082
     967.00   3.985426     0.1507E+03   0.14300  -0.35749
     969.00   3.986324     0.1523E+03   0.14765  -0.36912
     971.00   3.987219     0.1484E+03   0.13641  -0.34103
     973.00   3.988113     0.1460E+03   0.12921  -0.32302
     975.00   3.989005     0.1461E+03   0.12950  -0.32375
     977.00   3.989895     0.1473E+03   0.13315  -0.33288
     979.00   3.990783     0.1463E+03   0.13021  -0.32552
     981.00   3.991669     0.1498E+03   0.14039  -0.35098
     983.00   3.992553     0.1482E+03   0.13572  -0.33929
     985.00   3.993436     0.1492E+03   0.13858  -0.34646
     987.00   3.994317     0.1485E+03   0.13658  -0.34144
     989.00   3.995196     0.1485E+03   0.13657  -0.34144
     991.00   3.996074     0.1487E+03   0.13714  -0.34285
     993.00   3.996949     0.1502E+03   0.14149  -0.35373
     995.00   3.997823     0.1515E+03   0.14528  -0.36319
     997.00   3.998695     0.1518E+03   0.14611  -0.36527
     999.00   3.999566     0.1515E+03   0.14539  -0.36348
    1003.00   4.001301     0.1537E+03   0.15154  -0.37885
    1008.00   4.003461     0.1539E+03   0.15212  -0.38031
    1013.00   4.005610     0.1592E+03   0.16678  -0.41694
    1018.00   4.007748     0.1574E+03   0.16201  -0.40503
    1023.00   4.009875     0.1600E+03   0.16895  -0.42236
    1028.00   4.011993     0.1613E+03   0.17256  -0.43139
    1033.00   4.014100     0.1616E+03   0.17326  -0.43315
    1038.00   4.016197     0.1611E+03   0.17213  -0.43031
    1043.00   4.018284     0.1629E+03   0.17696  -0.44240
    1048.00   4.020361     0.1626E+03   0.17606  -0.44014
    1053.00   4.022429     0.1575E+03   0.16214  -0.40536
    1058.00   4.024486     0.1524E+03   0.14795  -0.36988
    1063.00   4.026533     0.1511E+03   0.14425  -0.36062
    1068.00   4.028571     0.1532E+03   0.15026  -0.37564
    1073.00   4.030600     0.1560E+03   0.15795  -0.39489
    1078.00   4.032619     0.1558E+03   0.15749  -0.39373
    1083.00   4.034628     0.1542E+03   0.15300  -0.38249
    1088.00   4.036629     0.1532E+03   0.15014  -0.37536
    1093.00   4.038620     0.1526E+03   0.14853  -0.37132
    1098.00   4.040603     0.1505E+03   0.14247  -0.35618
    1103.00   4.042576     0.1499E+03   0.14064  -0.35161
    1108.00   4.044539     0.1427E+03   0.11944  -0.29860
    1113.00   4.046495     0.1445E+03   0.12490  -0.31225
    1118.00   4.048442     0.1445E+03   0.12479  -0.31199
    1123.00   4.050380     0.1456E+03   0.12805  -0.32012
    1128.00   4.052309     0.1465E+03   0.13063  -0.32658
    1133.00   4.054230     0.1469E+03   0.13186  -0.32964
    1138.00   4.056142     0.1471E+03   0.13268  -0.33169
    1143.00   4.058046     0.1469E+03   0.13203  -0.33007
    1148.00   4.059942     0.1484E+03   0.13636  -0.34089
    1153.00   4.061830     0.1489E+03   0.13796  -0.34489
    1158.00   4.063708     0.1484E+03   0.13630  -0.34075
    1163.00   4.065579     0.1474E+03   0.13355  -0.33387
    1168.00   4.067443     0.1477E+03   0.13421  -0.33552
    1173.00   4.069298     0.1471E+03   0.13264  -0.33160
    1178.00   4.071145     0.1440E+03   0.12325  -0.30813
    1183.00   4.072985     0.1414E+03   0.11546  -0.28864
    1188.00   4.074817     0.1399E+03   0.11089  -0.27723
    1193.00   4.076640     0.1420E+03   0.11721  -0.29302
    1198.00   4.078457     0.1396E+03   0.10976  -0.27439
    1203.00   4.080266     0.1426E+03   0.11906  -0.29764
    1208.00   4.082067     0.1425E+03   0.11884  -0.29710
    1213.00   4.083861     0.1432E+03   0.12078  -0.30195
    1218.00   4.085648     0.1436E+03   0.12210  -0.30526
    1223.00   4.087426     0.1433E+03   0.12109  -0.30272
    1228.00   4.089198     0.1428E+03   0.11951  -0.29879
    1233.00   4.090963     0.1422E+03   0.11771  -0.29428
    1238.00   4.092721     0.1421E+03   0.11737  -0.29343
    1243.00   4.094471     0.1381E+03   0.10525  -0.26312
    1248.00   4.096214     0.1389E+03   0.10774  -0.26934
    1253.00   4.097951     0.1386E+03   0.10665  -0.26663
    1258.00   4.099681     0.1370E+03   0.10156  -0.25390
    1263.00   4.101403     0.1373E+03   0.10257  -0.25642
    1268.00   4.103119     0.1370E+03   0.10165  -0.25413
    1273.00   4.104828     0.1367E+03   0.10062  -0.25156
    1278.00   4.106531     0.1373E+03   0.10256  -0.25641
    1283.00   4.108227     0.1350E+03   0.09541  -0.23853
    1288.00   4.109916     0.1361E+03   0.09885  -0.24713
    1293.00   4.111598     0.1353E+03   0.09627  -0.24067
    1298.00   4.113275     0.1365E+03   0.09999  -0.24999
    1303.00   4.114944     0.1354E+03   0.09651  -0.24127
    1308.00   4.116608     0.1354E+03   0.09645  -0.24114
    1313.00   4.118265     0.1330E+03   0.08887  -0.22219
    1318.00   4.119915     0.1324E+03   0.08688  -0.21721
    1323.00   4.121560     0.1320E+03   0.08552  -0.21381
    1328.00   4.123198     0.1302E+03   0.07942  -0.19855
    1333.00   4.124830     0.1300E+03   0.07873  -0.19682
    1338.00   4.126456     0.1287E+03   0.07439  -0.18596
    1343.00   4.128076     0.1284E+03   0.07347  -0.18369
    1348.00   4.129690     0.1272E+03   0.06935  -0.17339
    1353.00   4.131298     0.1263E+03   0.06624  -0.16559
    1358.00   4.132900     0.1245E+03   0.06011  -0.15027
    1363.00   4.134496     0.1243E+03   0.05954  -0.14885
    1368.00   4.136086     0.1253E+03   0.06284  -0.15710
    1373.00   4.137671     0.1261E+03   0.06576  -0.16440
    1378.00   4.139249     0.1264E+03   0.06654  -0.16636
    1383.00   4.140822     0.1264E+03   0.06667  -0.16668
    1388.00   4.142389     0.1253E+03   0.06273  -0.15683
    1393.00   4.143951     0.1086E+03   0.00070  -0.00176
    1398.00   4.145507     0.1100E+03   0.00614  -0.01536
    1403.00   4.147058     0.1097E+03   0.00510  -0.01275
    1408.00   4.148602     0.1107E+03   0.00890  -0.02226
    1413.00   4.150142     0.1101E+03   0.00689  -0.01723
    1418.00   4.151676     0.1112E+03   0.01094  -0.02734
    1423.00   4.153205     0.1109E+03   0.01002  -0.02504
    1428.00   4.154728     0.1104E+03   0.00778  -0.01945
    1433.00   4.156246     0.1126E+03   0.01636  -0.04089
    1438.00   4.157759     0.1134E+03   0.01972  -0.04930
    1443.00   4.159266     0.1124E+03   0.01562  -0.03905
    1448.00   4.160769     0.1143E+03   0.02285  -0.05713
    1453.00   4.162266     0.1141E+03   0.02205  -0.05512
    1457.00   4.163460     0.1148E+03   0.02498  -0.06244
    1462.00   4.164948     0.1068E+03  -0.00650   0.01626
    1468.00   4.166726     0.1082E+03  -0.00104   0.00260
    1473.00   4.168202     0.1083E+03  -0.00058   0.00146
    1478.00   4.169674     0.1097E+03   0.00503  -0.01256
    1483.00   4.171141     0.1108E+03   0.00962  -0.02406
    1488.00   4.172603     0.1109E+03   0.00999  -0.02498
    1493.00   4.174060     0.1137E+03   0.02074  -0.05185
    1498.00   4.175512     0.1139E+03   0.02146  -0.05365
    1503.00   4.176959     0.1134E+03   0.01946  -0.04864
    1508.00   4.178401     0.1145E+03   0.02375  -0.05937
    1513.00   4.179839     0.1166E+03   0.03153  -0.07881
    1518.00   4.181272     0.1175E+03   0.03512  -0.08780
    1523.00   4.182700     0.1180E+03   0.03697  -0.09242
    1528.00   4.184123     0.1192E+03   0.04103  -0.10257
    1533.00   4.185542     0.1194E+03   0.04183  -0.10458
    1538.00   4.186956     0.1151E+03   0.02606  -0.06514
    1543.00   4.188366     0.1170E+03   0.03329  -0.08322
    1548.00   4.189771     0.1179E+03   0.03647  -0.09118
    1553.00   4.191172     0.1180E+03   0.03680  -0.09200
    1558.00   4.192567     0.1118E+03   0.01340  -0.03349
    1563.00   4.193959     0.1132E+03   0.01861  -0.04653
    1568.00   4.195346     0.1148E+03   0.02468  -0.06170
    1573.00   4.196729     0.1181E+03   0.03701  -0.09252
    1578.00   4.198107     0.1026E+03  -0.02413   0.06031
    1583.00   4.199481     0.1079E+03  -0.00187   0.00467
    1588.00   4.200850     0.1108E+03   0.00963  -0.02407
    1593.00   4.202216     0.1150E+03   0.02558  -0.06394
    1598.00   4.203577     0.1182E+03   0.03754  -0.09386
    1605.00   4.205475     0.1089E+03   0.00189  -0.00473
    1615.00   4.208173     0.1151E+03   0.02600  -0.06499
    1625.00   4.210854     0.1076E+03  -0.00315   0.00789
    1635.00   4.213518     0.1150E+03   0.02567  -0.06418
    1645.00   4.216166     0.1085E+03   0.00029  -0.00073
    1655.00   4.218798     0.1132E+03   0.01881  -0.04702
    1665.00   4.221415     0.1084E+03   0.00008  -0.00021
    1675.00   4.224015     0.1123E+03   0.01541  -0.03852
    1685.00   4.226600     0.1144E+03   0.02317  -0.05792
    1695.00   4.229170     0.1108E+03   0.00948  -0.02371
    1705.00   4.231725     0.1107E+03   0.00919  -0.02299
    1715.00   4.234264     0.1079E+03  -0.00204   0.00510
    1725.00   4.236789     0.1067E+03  -0.00702   0.01754
    1735.00   4.239300     0.1029E+03  -0.02272   0.05679
    1745.00   4.241796     0.1016E+03  -0.02801   0.07004
    1755.00   4.244277     0.1004E+03  -0.03350   0.08375
    1765.00   4.246745     0.9721E+02  -0.04736   0.11839
    1775.00   4.249198     0.9441E+02  -0.06005   0.15013
    1785.00   4.251638     0.9250E+02  -0.06892   0.17230
    1795.00   4.254065     0.8952E+02  -0.08314   0.20785
    1805.00   4.256477     0.8704E+02  -0.09534   0.23834
    1815.00   4.258877     0.8553E+02  -0.10293   0.25733
    1825.00   4.261263     0.8418E+02  -0.10987   0.27467
    1835.00   4.263636     0.8285E+02  -0.11677   0.29193
    1845.00   4.265996     0.8113E+02  -0.12591   0.31478
    1855.00   4.268344     0.7981E+02  -0.13301   0.33252
    1865.00   4.270679     0.7755E+02  -0.14550   0.36374
    1875.00   4.273001     0.7610E+02  -0.15371   0.38428
    1885.00   4.275311     0.7535E+02  -0.15801   0.39502
    1895.00   4.277609     0.7335E+02  -0.16970   0.42425
    1905.00   4.279895     0.7343E+02  -0.16922   0.42305
    1915.00   4.282169     0.7217E+02  -0.17671   0.44178
    1925.00   4.284431     0.7125E+02  -0.18229   0.45572
    1935.00   4.286681     0.6967E+02  -0.19204   0.48009
    1945.00   4.288919     0.6820E+02  -0.20131   0.50328
    1955.00   4.291147     0.6723E+02  -0.20751   0.51878
    1965.00   4.293363     0.6569E+02  -0.21759   0.54396
    1975.00   4.295567     0.6373E+02  -0.23071   0.57677
    1985.00   4.297760     0.6277E+02  -0.23731   0.59327
    1995.00   4.299943     0.6205E+02  -0.24235   0.60587
    2005.00   4.302114     0.6156E+02  -0.24575   0.61437
    2015.00   4.304275     0.6074E+02  -0.25161   0.62902
    2025.00   4.306425     0.5959E+02  -0.25988   0.64971
    2035.00   4.308564     0.5909E+02  -0.26355   0.65889
    2045.00   4.310693     0.5892E+02  -0.26480   0.66200
    2055.00   4.312812     0.5825E+02  -0.26979   0.67447
    2065.00   4.314920     0.5762E+02  -0.27448   0.68621
    2075.00   4.317018     0.5722E+02  -0.27756   0.69390
    2085.00   4.319106     0.5666E+02  -0.28179   0.70448
    2095.00   4.321184     0.5600E+02  -0.28692   0.71729
    2105.00   4.323252     0.5577E+02  -0.28866   0.72164
    2115.00   4.325311     0.5507E+02  -0.29418   0.73546
    2125.00   4.327359     0.5446E+02  -0.29898   0.74745
    2135.00   4.329398     0.5408E+02  -0.30201   0.75504
    2145.00   4.331428     0.5348E+02  -0.30691   0.76728
    2155.00   4.333447     0.5281E+02  -0.31233   0.78083
    2165.00   4.335458     0.5206E+02  -0.31858   0.79645
    2175.00   4.337460     0.5135E+02  -0.32457   0.81142
    2185.00   4.339452     0.5079E+02  -0.32930   0.82324
    2195.00   4.341434     0.5021E+02  -0.33432   0.83579
    2205.00   4.343409     0.4920E+02  -0.34311   0.85779
    2215.00   4.345374     0.4892E+02  -0.34559   0.86397
    2225.00   4.347330     0.4794E+02  -0.35434   0.88585
    2235.00   4.349277     0.4733E+02  -0.35991   0.89977
    2245.00   4.351216     0.4668E+02  -0.36595   0.91488
    2255.00   4.353147     0.4611E+02  -0.37126   0.92815
    2265.00   4.355068     0.4524E+02  -0.37957   0.94893
    2275.00   4.356981     0.4486E+02  -0.38322   0.95804
    2285.00   4.358886     0.4402E+02  -0.39143   0.97858
    2295.00   4.360783     0.3426E+02  -0.50034   1.25086
    2305.00   4.362671     0.3868E+02  -0.44764   1.11909
    2315.00   4.364551     0.3864E+02  -0.44802   1.12006
    2325.00   4.366423     0.3188E+02  -0.53149   1.32873
    2335.00   4.368287     0.3535E+02  -0.48667   1.21667
    2345.00   4.370143     0.3153E+02  -0.53637   1.34091
    2355.00   4.371991     0.2953E+02  -0.56485   1.41213
    2365.00   4.373831     0.3229E+02  -0.52599   1.31497
    2375.00   4.375664     0.2955E+02  -0.56453   1.41133
    2385.00   4.377488     0.2767E+02  -0.59314   1.48285
    2395.00   4.379306     0.2969E+02  -0.56245   1.40612
    2405.00   4.381115     0.2794E+02  -0.58883   1.47208
    2415.00   4.382917     0.2564E+02  -0.62623   1.56559
    2425.00   4.384712     0.2721E+02  -0.60041   1.50101
    2435.00   4.386499     0.2532E+02  -0.63162   1.57905
    2445.00   4.388279     0.2546E+02  -0.62929   1.57323
    2455.00   4.390052     0.2408E+02  -0.65338   1.63345
    2465.00   4.391817     0.2358E+02  -0.66249   1.65624
    2475.00   4.393575     0.2271E+02  -0.67889   1.69723
    2485.00   4.395327     0.1906E+02  -0.75505   1.88762
    2495.00   4.397071     0.1756E+02  -0.79065   1.97662
    2505.00   4.398808     0.1780E+02  -0.78470   1.96176
    2515.00   4.400538     0.1701E+02  -0.80440   2.01100
    2525.00   4.402262     0.1739E+02  -0.79483   1.98707
    2535.00   4.403978     0.1741E+02  -0.79429   1.98572
    2545.00   4.405688     0.1726E+02  -0.79811   1.99527
    2555.00   4.407391     0.1733E+02  -0.79629   1.99073
    2565.00   4.409087     0.1760E+02  -0.78956   1.97389
    2575.00   4.410777     0.1789E+02  -0.78243   1.95609
    2585.00   4.412460     0.1767E+02  -0.78772   1.96931
    2595.00   4.414137     0.1774E+02  -0.78622   1.96554
    2605.00   4.415808     0.1776E+02  -0.78569   1.96423
    2615.00   4.417472     0.1751E+02  -0.79175   1.97938
    2625.00   4.419129     0.1729E+02  -0.79732   1.99331
    2635.00   4.420781     0.1727E+02  -0.79783   1.99458
    2645.00   4.422426     0.1712E+02  -0.80164   2.00411
    2655.00   4.424065     0.1694E+02  -0.80628   2.01570
    2665.00   4.425697     0.1669E+02  -0.81253   2.03133
    2675.00   4.427324     0.1683E+02  -0.80895   2.02237
    2685.00   4.428945     0.1666E+02  -0.81352   2.03379
    2695.00   4.430559     0.1637E+02  -0.82102   2.05254
    2705.00   4.432167     0.1635E+02  -0.82145   2.05363
    2715.00   4.433770     0.1621E+02  -0.82521   2.06303
    2725.00   4.435367     0.1611E+02  -0.82787   2.06968
    2735.00   4.436957     0.1586E+02  -0.83468   2.08671
    2745.00   4.438542     0.1582E+02  -0.83579   2.08947
    2755.00   4.440122     0.1573E+02  -0.83833   2.09582
    2765.00   4.441695     0.1554E+02  -0.84372   2.10929
    2775.00   4.443263     0.1533E+02  -0.84953   2.12383
    2785.00   4.444825     0.1527E+02  -0.85123   2.12807
    2795.00   4.446382     0.1520E+02  -0.85335   2.13336
    2805.00   4.447933     0.1504E+02  -0.85771   2.14429
    2815.00   4.449478     0.1486E+02  -0.86302   2.15754
    2825.00   4.451018     0.1476E+02  -0.86590   2.16474
    2835.00   4.452553     0.1468E+02  -0.86820   2.17051
    2845.00   4.454082     0.1452E+02  -0.87299   2.18248
    2855.00   4.455606     0.1439E+02  -0.87700   2.19249
    2865.00   4.457125     0.1427E+02  -0.88057   2.20142
    2875.00   4.458638     0.1416E+02  -0.88408   2.21021
    2885.00   4.460146     0.1403E+02  -0.88807   2.22018
    2895.00   4.461648     0.1391E+02  -0.89185   2.22962
    2905.00   4.463146     0.1377E+02  -0.89604   2.24010
    2915.00   4.464639     0.1366E+02  -0.89949   2.24873
    2925.00   4.466126     0.1346E+02  -0.90598   2.26496
    2935.00   4.467608     0.1342E+02  -0.90744   2.26860
    2945.00   4.469085     0.1328E+02  -0.91199   2.27998
    2955.00   4.470557     0.1316E+02  -0.91582   2.28955
    2965.00   4.472025     0.1307E+02  -0.91890   2.29726
    2975.00   4.473487     0.1295E+02  -0.92277   2.30692
    2985.00   4.474944     0.1281E+02  -0.92754   2.31886
    2995.00   4.476397     0.1268E+02  -0.93181   2.32953
    3005.00   4.477844     0.1260E+02  -0.93462   2.33655
    3015.00   4.479287     0.1257E+02  -0.93563   2.33908
    3025.00   4.480725     0.1249E+02  -0.93835   2.34587
    3035.00   4.482159     0.1243E+02  -0.94063   2.35159
    3045.00   4.483587     0.1241E+02  -0.94146   2.35365
    3055.00   4.485011     0.1234E+02  -0.94378   2.35944
    3065.00   4.486430     0.1228E+02  -0.94576   2.36440
    3075.00   4.487845     0.1226E+02  -0.94672   2.36681
    3085.00   4.489255     0.1218E+02  -0.94927   2.37318
    3095.00   4.490661     0.1217E+02  -0.94981   2.37451
    3105.00   4.492062     0.1214E+02  -0.95074   2.37684
    3115.00   4.493458     0.1203E+02  -0.95470   2.38676
    3125.00   4.494850     0.1201E+02  -0.95543   2.38858
    3135.00   4.496238     0.1196E+02  -0.95750   2.39375
    3145.00   4.497621     0.1189E+02  -0.95985   2.39964
    3155.00   4.499000     0.1182E+02  -0.96258   2.40645
    3165.00   4.500374     0.1174E+02  -0.96550   2.41375
    3175.00   4.501744     0.1170E+02  -0.96681   2.41702
    3185.00   4.503109     0.1166E+02  -0.96849   2.42123
    3195.00   4.504471     0.1163E+02  -0.96964   2.42411
    3210.00   4.506505     0.1154E+02  -0.97290   2.43224
    3230.00   4.509202     0.1142E+02  -0.97756   2.44390
    3250.00   4.511883     0.1131E+02  -0.98154   2.45386
    3270.00   4.514548     0.1117E+02  -0.98689   2.46724
    3290.00   4.517196     0.1101E+02  -0.99330   2.48325
    3310.00   4.519828     0.1090E+02  -0.99760   2.49399
    3330.00   4.522444     0.1075E+02  -1.00385   2.50962
    3350.00   4.525045     0.1061E+02  -1.00931   2.52329
    3370.00   4.527630     0.1045E+02  -1.01586   2.53965
    3390.00   4.530200     0.1028E+02  -1.02322   2.55804
    3410.00   4.532754     0.1010E+02  -1.03072   2.57680
    3430.00   4.535294     0.9954E+01  -1.03706   2.59264
    3450.00   4.537819     0.9785E+01  -1.04450   2.61126
    3470.00   4.540329     0.9612E+01  -1.05224   2.63061
    3490.00   4.542826     0.9454E+01  -1.05946   2.64864
    3510.00   4.545307     0.9296E+01  -1.06679   2.66698
    3530.00   4.547775     0.9123E+01  -1.07494   2.68734
    3550.00   4.550228     0.8971E+01  -1.08221   2.70552
    3570.00   4.552669     0.8809E+01  -1.09015   2.72538
    3590.00   4.555095     0.8657E+01  -1.09771   2.74427
    3610.00   4.557508     0.8512E+01  -1.10503   2.76258
    3630.00   4.559907     0.8355E+01  -1.11313   2.78282
    3650.00   4.562293     0.8194E+01  -1.12159   2.80397
    3670.00   4.564666     0.8045E+01  -1.12954   2.82384
    3690.00   4.567026     0.7883E+01  -1.13838   2.84594
    3710.00   4.569374     0.7733E+01  -1.14670   2.86674
    3730.00   4.571709     0.7611E+01  -1.15363   2.88408
    3750.00   4.574031     0.7451E+01  -1.16283   2.90708
    3770.00   4.576342     0.7337E+01  -1.16954   2.92384
    3790.00   4.578639     0.7194E+01  -1.17810   2.94524
    3810.00   4.580925     0.7065E+01  -1.18596   2.96490
    3830.00   4.583199     0.6944E+01  -1.19345   2.98362
    3850.00   4.585461     0.6818E+01  -1.20139   3.00348
    3870.00   4.587711     0.6677E+01  -1.21052   3.02631
    3890.00   4.589950     0.6558E+01  -1.21829   3.04573
    3910.00   4.592176     0.6441E+01  -1.22611   3.06528
    3930.00   4.594393     0.6321E+01  -1.23428   3.08570
    3950.00   4.596597     0.6188E+01  -1.24355   3.10888
    3970.00   4.598790     0.6078E+01  -1.25134   3.12834
    3990.00   4.600973     0.5947E+01  -1.26075   3.15188
    4010.00   4.603145     0.5850E+01  -1.26794   3.16985
    4030.00   4.605305     0.5749E+01  -1.27546   3.18866
    4050.00   4.607455     0.5636E+01  -1.28414   3.21035
    4070.00   4.609594     0.5535E+01  -1.29199   3.22996
    4090.00   4.611723     0.5433E+01  -1.30002   3.25006
    4110.00   4.613842     0.5343E+01  -1.30732   3.26830
    4130.00   4.615950     0.5257E+01  -1.31437   3.28593
    4150.00   4.618048     0.5165E+01  -1.32202   3.30505
    4170.00   4.620136     0.5079E+01  -1.32928   3.32319
    4190.00   4.622214     0.4991E+01  -1.33693   3.34232
    4210.00   4.624282     0.4903E+01  -1.34462   3.36155
    4230.00   4.626340     0.4837E+01  -1.35054   3.37634
    4250.00   4.628389     0.4750E+01  -1.35839   3.39599
    4270.00   4.630428     0.4678E+01  -1.36502   3.41254
    4290.00   4.632457     0.4510E+01  -1.38087   3.45218
    4310.00   4.634478     0.4332E+01  -1.39835   3.49587
    4330.00   4.636488     0.4299E+01  -1.40171   3.50427
    4350.00   4.638489     0.4160E+01  -1.41602   3.54004
    4370.00   4.640481     0.4064E+01  -1.42611   3.56528
    4390.00   4.642465     0.3988E+01  -1.43435   3.58588
    4410.00   4.644439     0.3874E+01  -1.44689   3.61723
    4430.00   4.646404     0.3814E+01  -1.45368   3.63420
    4450.00   4.648360     0.3750E+01  -1.46100   3.65250
    4470.00   4.650308     0.3654E+01  -1.47232   3.68080
    4490.00   4.652246     0.3625E+01  -1.47581   3.68952
    4510.00   4.654177     0.3550E+01  -1.48487   3.71217
    4530.00   4.656098     0.3478E+01  -1.49380   3.73449
    4550.00   4.658011     0.3444E+01  -1.49804   3.74510
    4570.00   4.659916     0.3398E+01  -1.50389   3.75972
    4590.00   4.661813     0.3318E+01  -1.51423   3.78559
    4610.00   4.663701     0.3297E+01  -1.51690   3.79225
    4630.00   4.665581     0.3240E+01  -1.52450   3.81126
    4650.00   4.667453     0.3202E+01  -1.52970   3.82424
    4670.00   4.669317     0.3170E+01  -1.53397   3.83493
    4690.00   4.671173     0.3116E+01  -1.54154   3.85385
    4710.00   4.673021     0.3067E+01  -1.54842   3.87105
    4730.00   4.674861     0.3049E+01  -1.55092   3.87729
    4750.00   4.676694     0.2991E+01  -1.55923   3.89807
    4770.00   4.678518     0.2951E+01  -1.56512   3.91279
    4790.00   4.680336     0.2918E+01  -1.56996   3.92490
    4810.00   4.682145     0.2859E+01  -1.57881   3.94703
    4830.00   4.683947     0.2846E+01  -1.58083   3.95208
    4850.00   4.685741     0.2800E+01  -1.58799   3.96997
    4870.00   4.687529     0.2752E+01  -1.59539   3.98847
    4890.00   4.689309     0.2714E+01  -1.60145   4.00363
    4910.00   4.691082     0.2680E+01  -1.60696   4.01740
    4930.00   4.692847     0.2640E+01  -1.61346   4.03365
    4950.00   4.694605     0.2599E+01  -1.62027   4.05067
    4970.00   4.696356     0.2574E+01  -1.62453   4.06132
    4990.00   4.698101     0.2538E+01  -1.63059   4.07647
    5010.00   4.699838     0.2504E+01  -1.63641   4.09103
    5030.00   4.701568     0.2471E+01  -1.64226   4.10566
    5050.00   4.703291     0.2428E+01  -1.64989   4.12472
    5070.00   4.705008     0.2403E+01  -1.65435   4.13588
    5090.00   4.706717     0.2371E+01  -1.66019   4.15046
    5110.00   4.708421     0.2334E+01  -1.66699   4.16748
    5130.00   4.710117     0.2312E+01  -1.67104   4.17760
    5150.00   4.711807     0.2275E+01  -1.67805   4.19513
    5170.00   4.713490     0.2256E+01  -1.68173   4.20431
    5190.00   4.715167     0.2220E+01  -1.68864   4.22161
    5210.00   4.716838     0.2195E+01  -1.69367   4.23418
    5230.00   4.718502     0.2160E+01  -1.70053   4.25132
    5250.00   4.720160     0.2139E+01  -1.70494   4.26235
    5270.00   4.721810     0.2120E+01  -1.70870   4.27176
    5290.00   4.723455     0.2082E+01  -1.71668   4.29170
    5310.00   4.725095     0.2055E+01  -1.72232   4.30579
    5330.00   4.726727     0.2033E+01  -1.72686   4.31716
    5350.00   4.728354     0.2008E+01  -1.73227   4.33067
    5370.00   4.729974     0.1985E+01  -1.73739   4.34348
    5390.00   4.731589     0.1961E+01  -1.74261   4.35652
    5410.00   4.733197     0.1937E+01  -1.74792   4.36979
    5430.00   4.734800     0.1906E+01  -1.75486   4.38714
    5450.00   4.736397     0.1891E+01  -1.75839   4.39598
    5470.00   4.737988     0.1863E+01  -1.76486   4.41214
    5490.00   4.739573     0.1842E+01  -1.76975   4.42437
    5510.00   4.741152     0.1818E+01  -1.77538   4.43845
    5530.00   4.742725     0.1810E+01  -1.77734   4.44335
    5550.00   4.744293     0.1774E+01  -1.78623   4.46558
    5570.00   4.745855     0.1762E+01  -1.78916   4.47290
    5590.00   4.747412     0.1736E+01  -1.79561   4.48901
    5610.00   4.748963     0.1719E+01  -1.79979   4.49947
    5630.00   4.750508     0.1692E+01  -1.80658   4.51646
    5650.00   4.752048     0.1678E+01  -1.81020   4.52551
    5670.00   4.753583     0.1658E+01  -1.81543   4.53857
    5690.00   4.755112     0.1633E+01  -1.82211   4.55528
    5710.00   4.756636     0.1621E+01  -1.82541   4.56353
    5730.00   4.758155     0.1600E+01  -1.83086   4.57714
    5750.00   4.759668     0.1581E+01  -1.83603   4.59008
    5770.00   4.761176     0.1561E+01  -1.84158   4.60395
    5790.00   4.762679     0.1547E+01  -1.84560   4.61401
    5810.00   4.764176     0.1525E+01  -1.85174   4.62934
    5830.00   4.765669     0.1508E+01  -1.85659   4.64147
    5850.00   4.767156     0.1491E+01  -1.86158   4.65394
    5870.00   4.768638     0.1470E+01  -1.86766   4.66915
    5890.00   4.770115     0.1454E+01  -1.87248   4.68120
    5910.00   4.771587     0.1438E+01  -1.87726   4.69314
    5930.00   4.773055     0.1422E+01  -1.88212   4.70529
    5950.00   4.774517     0.1404E+01  -1.88782   4.71954
    5970.00   4.775974     0.1390E+01  -1.89211   4.73027
    5990.00   4.777427     0.1374E+01  -1.89719   4.74298
    6010.00   4.778874     0.1358E+01  -1.90228   4.75569
    6030.00   4.780317     0.1342E+01  -1.90741   4.76851
    6050.00   4.781755     0.1324E+01  -1.91313   4.78283
    6070.00   4.783189     0.1309E+01  -1.91805   4.79513
    6090.00   4.784617     0.1294E+01  -1.92315   4.80787
    6110.00   4.786041     0.1278E+01  -1.92848   4.82120
    6130.00   4.787460     0.1265E+01  -1.93297   4.83243
    6150.00   4.788875     0.1251E+01  -1.93776   4.84441
    6170.00   4.790285     0.1238E+01  -1.94239   4.85599
    6190.00   4.791691     0.1223E+01  -1.94750   4.86874
    6210.00   4.793092     0.1210E+01  -1.95219   4.88049
    6230.00   4.794488     0.1195E+01  -1.95765   4.89413
    6250.00   4.795880     0.1180E+01  -1.96306   4.90765
    6270.00   4.797267     0.1167E+01  -1.96803   4.92008
    6290.00   4.798651     0.1155E+01  -1.97266   4.93166
    6310.00   4.800029     0.1141E+01  -1.97782   4.94454
    6330.00   4.801404     0.1130E+01  -1.98199   4.95499
    6350.00   4.802773     0.1116E+01  -1.98730   4.96825
    6370.00   4.804139     0.1105E+01  -1.99158   4.97896
    6390.00   4.805501     0.1091E+01  -1.99713   4.99281
    6420.00   4.807535     0.1074E+01  -2.00418   5.01045
    6460.00   4.810232     0.1049E+01  -2.01412   5.03531
    6500.00   4.812913     0.1026E+01  -2.02375   5.05939
    6540.00   4.815578     0.1004E+01  -2.03339   5.08348
    6580.00   4.818226     0.9824E+00  -2.04278   5.10694
    6620.00   4.820858     0.9607E+00  -2.05249   5.13124
    6660.00   4.823474     0.9400E+00  -2.06194   5.15484
    6700.00   4.826075     0.9198E+00  -2.07136   5.17841
    6740.00   4.828660     0.8997E+00  -2.08097   5.20242
    6780.00   4.831230     0.8806E+00  -2.09031   5.22578
    6820.00   4.833784     0.8617E+00  -2.09974   5.24935
    6860.00   4.836324     0.8437E+00  -2.10888   5.27221
    6900.00   4.838849     0.8257E+00  -2.11823   5.29558
    6940.00   4.841359     0.8084E+00  -2.12743   5.31858
    6980.00   4.843855     0.7916E+00  -2.13658   5.34145
    7020.00   4.846337     0.7748E+00  -2.14586   5.36465
    7060.00   4.848804     0.7590E+00  -2.15483   5.38708
    7100.00   4.851258     0.7433E+00  -2.16391   5.40978
    7140.00   4.853698     0.7281E+00  -2.17287   5.43219
    7180.00   4.856124     0.7131E+00  -2.18190   5.45475
    7220.00   4.858537     0.6987E+00  -2.19078   5.47696
    7260.00   4.860937     0.6845E+00  -2.19972   5.49931
    7300.00   4.863323     0.6707E+00  -2.20853   5.52133
    7340.00   4.865696     0.6571E+00  -2.21743   5.54358
    7380.00   4.868056     0.6441E+00  -2.22612   5.56529
    7420.00   4.870404     0.6309E+00  -2.23512   5.58780
    7460.00   4.872739     0.6184E+00  -2.24377   5.60943
    7500.00   4.875061     0.6064E+00  -2.25234   5.63085
    7540.00   4.877371     0.5943E+00  -2.26104   5.65260
    7580.00   4.879669     0.5831E+00  -2.26934   5.67334
    7620.00   4.881955     0.5718E+00  -2.27785   5.69463
    7660.00   4.884229     0.5607E+00  -2.28633   5.71584
    7700.00   4.886491     0.5498E+00  -2.29483   5.73709
    7740.00   4.888741     0.5394E+00  -2.30318   5.75796
    7780.00   4.890980     0.5291E+00  -2.31153   5.77881
    7820.00   4.893207     0.5190E+00  -2.31986   5.79966
    7860.00   4.895422     0.5093E+00  -2.32814   5.82034
    7900.00   4.897627     0.4997E+00  -2.33640   5.84099
    7940.00   4.899820     0.4903E+00  -2.34460   5.86149
    7980.00   4.902003     0.4812E+00  -2.35274   5.88185
    8020.00   4.904174     0.4721E+00  -2.36104   5.90259
    8060.00   4.906335     0.4634E+00  -2.36910   5.92275
    8100.00   4.908485     0.4550E+00  -2.37708   5.94270
    8140.00   4.910625     0.4466E+00  -2.38515   5.96289
    8180.00   4.912753     0.4386E+00  -2.39305   5.98263
    8220.00   4.914872     0.4306E+00  -2.40099   6.00248
    8260.00   4.916980     0.4228E+00  -2.40893   6.02232
    8300.00   4.919078     0.4152E+00  -2.41680   6.04200
    8340.00   4.921166     0.4077E+00  -2.42475   6.06188
    8380.00   4.923244     0.4004E+00  -2.43258   6.08145
    8420.00   4.925312     0.3934E+00  -2.44024   6.10061
    8460.00   4.927370     0.3864E+00  -2.44802   6.12006
    8500.00   4.929419     0.3796E+00  -2.45571   6.13929
    8540.00   4.931458     0.3730E+00  -2.46336   6.15840
    8580.00   4.933487     0.3665E+00  -2.47097   6.17741
    8620.00   4.935507     0.3602E+00  -2.47857   6.19641
    8660.00   4.937518     0.3540E+00  -2.48611   6.21527
    8700.00   4.939519     0.3479E+00  -2.49366   6.23416
    8740.00   4.941511     0.3419E+00  -2.50116   6.25289
    8780.00   4.943495     0.3361E+00  -2.50865   6.27163
    8820.00   4.945469     0.3303E+00  -2.51615   6.29038
    8860.00   4.947433     0.3247E+00  -2.52354   6.30886
    8900.00   4.949390     0.3192E+00  -2.53096   6.32740
    8940.00   4.951338     0.3139E+00  -2.53824   6.34559
    8980.00   4.953277     0.3086E+00  -2.54570   6.36426
    9020.00   4.955207     0.3036E+00  -2.55284   6.38211
    9060.00   4.957129     0.2985E+00  -2.56007   6.40017
    9100.00   4.959042     0.2935E+00  -2.56752   6.41881
    9140.00   4.960946     0.2887E+00  -2.57457   6.43643
    9180.00   4.962843     0.2840E+00  -2.58175   6.45437
    9220.00   4.964731     0.2794E+00  -2.58878   6.47195
    9260.00   4.966611     0.2749E+00  -2.59590   6.48976
    9300.00   4.968483     0.2705E+00  -2.60297   6.50743
    9340.00   4.970347     0.2661E+00  -2.61005   6.52512
    9380.00   4.972203     0.2618E+00  -2.61705   6.54262
    9420.00   4.974051     0.2577E+00  -2.62404   6.56010
    9460.00   4.975891     0.2535E+00  -2.63105   6.57761
    9500.00   4.977724     0.2495E+00  -2.63797   6.59493
    9540.00   4.979548     0.2456E+00  -2.64488   6.61220
    9580.00   4.981365     0.2417E+00  -2.65174   6.62935
    9620.00   4.983175     0.2379E+00  -2.65862   6.64655
    9660.00   4.984977     0.2342E+00  -2.66544   6.66359
    9700.00   4.986772     0.2306E+00  -2.67223   6.68057
    9740.00   4.988559     0.2269E+00  -2.67921   6.69802
    9780.00   4.990339     0.2235E+00  -2.68582   6.71456
    9820.00   4.992111     0.2201E+00  -2.69249   6.73124
    9860.00   4.993877     0.2167E+00  -2.69920   6.74799
    9900.00   4.995635     0.2134E+00  -2.70585   6.76463
    9940.00   4.997386     0.2102E+00  -2.71253   6.78133
    9980.00   4.999130     0.2070E+00  -2.71914   6.79786
   10020.00   5.000868     0.2039E+00  -2.72574   6.81435
   20000.00   5.301030     0.1417E-01  -3.88372   9.70930
   40000.00   5.602060     0.9274E-03  -5.06779  12.66948
   60000.00   5.778151     0.1857E-03  -5.76616  14.41541
   80000.00   5.903090     0.5913E-04  -6.26328  15.65820
  100000.00   6.000000     0.2430E-04  -6.64955  16.62387
  120000.00   6.079181     0.1174E-04  -6.96550  17.41376
  140000.00   6.146128     0.6342E-05  -7.23286  18.08215
  160000.00   6.204120     0.3720E-05  -7.46457  18.66143
