age =   13.0    [Fe/H] =    0.00

wavele(nm) log wave(A)   Hlam       log(Hlam/Hlam(V))  Hlam(mag(V)) 
      89.50   2.951823     0.9263E-13 -15.19741  37.99353
      90.50   2.956649     0.1513E-12 -14.98426  37.46065
      91.50   2.961421     0.2371E-12 -14.78929  36.97322
      92.50   2.966142     0.9867E-11 -13.16998  32.92496
      93.50   2.970812     0.1381E-10 -13.02394  32.55986
      94.50   2.975432     0.2023E-10 -12.85829  32.14572
      95.50   2.980003     0.3086E-10 -12.67472  31.68680
      96.50   2.984527     0.4567E-10 -12.50451  31.26128
      97.50   2.989005     0.6146E-10 -12.37562  30.93905
      98.50   2.993436     0.8716E-10 -12.22388  30.55970
      99.50   2.997823     0.1197E-09 -12.08621  30.21552
     100.50   3.002166     0.1790E-09 -11.91123  29.77808
     101.50   3.006466     0.2453E-09 -11.77442  29.43605
     102.50   3.010724     0.2861E-09 -11.70767  29.26918
     103.50   3.014940     0.4702E-09 -11.49194  28.72985
     104.50   3.019116     0.6532E-09 -11.34916  28.37289
     105.50   3.023252     0.8357E-09 -11.24213  28.10532
     106.50   3.027350     0.1138E-08 -11.10800  27.77001
     107.50   3.031409     0.1546E-08 -10.97504  27.43759
     108.50   3.035430     0.2090E-08 -10.84399  27.10997
     109.50   3.039414     0.2627E-08 -10.74466  26.86164
     110.50   3.043362     0.9906E-08 -10.16829  25.42071
     111.50   3.047275     0.1646E-07  -9.94772  24.86931
     112.50   3.051152     0.2429E-07  -9.77867  24.44667
     113.50   3.054996     0.3616E-07  -9.60594  24.01485
     114.50   3.058805     0.4856E-07  -9.47793  23.69484
     115.50   3.062582     0.5770E-07  -9.40302  23.50756
     116.50   3.066326     0.7855E-07  -9.26903  23.17257
     117.50   3.070038     0.1020E-06  -9.15560  22.88899
     118.50   3.073718     0.1147E-06  -9.10480  22.76200
     119.50   3.077368     0.1019E-06  -9.15586  22.88965
     120.50   3.080987     0.1140E-06  -9.10740  22.76851
     121.50   3.084576     0.3076E-07  -9.67624  24.19061
     122.50   3.088136     0.1570E-06  -8.96832  22.42081
     123.50   3.091667     0.2974E-06  -8.69090  21.72725
     124.50   3.095169     0.4033E-06  -8.55851  21.39627
     125.50   3.098644     0.4860E-06  -8.47757  21.19392
     126.50   3.102091     0.5304E-06  -8.43961  21.09903
     127.50   3.105510     0.6503E-06  -8.35107  20.87767
     128.50   3.108903     0.7349E-06  -8.29796  20.74490
     129.50   3.112270     0.8968E-06  -8.21149  20.52872
     130.50   3.115611     0.9491E-06  -8.18685  20.46714
     131.50   3.118926     0.1189E-05  -8.08913  20.22283
     132.50   3.122216     0.1243E-05  -8.06971  20.17427
     133.50   3.125481     0.1393E-05  -8.02018  20.05045
     134.50   3.128722     0.1653E-05  -7.94578  19.86444
     135.50   3.131939     0.1941E-05  -7.87611  19.69027
     136.50   3.135133     0.2092E-05  -7.84361  19.60902
     137.50   3.138303     0.2280E-05  -7.80623  19.51557
     138.50   3.141450     0.2526E-05  -7.76178  19.40444
     139.50   3.144574     0.2859E-05  -7.70794  19.26986
     140.50   3.147676     0.3507E-05  -7.61925  19.04813
     141.50   3.150756     0.4018E-05  -7.56019  18.90048
     142.50   3.153815     0.4668E-05  -7.49505  18.73763
     143.50   3.156852     0.5599E-05  -7.41605  18.54012
     144.20   3.158965     0.7249E-05  -7.30387  18.25969
     144.70   3.160469     0.6537E-05  -7.34878  18.37196
     145.50   3.162863     0.7706E-05  -7.27735  18.19337
     146.50   3.165838     0.9975E-05  -7.16526  17.91315
     147.50   3.168792     0.1146E-04  -7.10517  17.76293
     148.50   3.171726     0.1238E-04  -7.07152  17.67880
     149.50   3.174641     0.1627E-04  -6.95289  17.38224
     150.50   3.177536     0.1999E-04  -6.86335  17.15836
     151.20   3.179552     0.1516E-04  -6.98348  17.45869
     151.70   3.180986     0.1946E-04  -6.87500  17.18750
     152.50   3.183270     0.4836E-04  -6.47967  16.19917
     153.50   3.186108     0.8181E-04  -6.25135  15.62837
     154.50   3.188928     0.6698E-04  -6.33823  15.84557
     155.50   3.191730     0.1133E-03  -6.10985  15.27463
     156.50   3.194514     0.1068E-03  -6.13568  15.33921
     157.50   3.197281     0.2066E-03  -5.84912  14.62281
     158.50   3.200029     0.2523E-03  -5.76234  14.40586
     159.50   3.202761     0.2966E-03  -5.69205  14.23012
     160.50   3.205475     0.3180E-03  -5.66175  14.15437
     161.50   3.208173     0.3496E-03  -5.62057  14.05143
     162.50   3.210853     0.3953E-03  -5.56720  13.91800
     163.50   3.213518     0.4673E-03  -5.49456  13.73640
     164.50   3.216166     0.6689E-03  -5.33880  13.34699
     165.50   3.218798     0.4342E-03  -5.52654  13.81635
     166.50   3.221414     0.7798E-03  -5.27221  13.18052
     167.20   3.223236     0.5462E-03  -5.42682  13.56704
     167.70   3.224533     0.2104E-02  -4.84106  12.10265
     168.50   3.226600     0.2375E-02  -4.78843  11.97108
     169.50   3.229170     0.2985E-02  -4.68924  11.72309
     170.50   3.231725     0.3217E-02  -4.65679  11.64197
     171.50   3.234264     0.3044E-02  -4.68079  11.70199
     172.50   3.236789     0.3940E-02  -4.56873  11.42182
     173.50   3.239300     0.4717E-02  -4.49048  11.22619
     174.50   3.241796     0.6541E-02  -4.34856  10.87139
     175.50   3.244277     0.8866E-02  -4.21643  10.54107
     176.50   3.246745     0.8303E-02  -4.24492  10.61231
     177.50   3.249198     0.9045E-02  -4.20778  10.51944
     178.50   3.251638     0.1199E-01  -4.08549  10.21373
     179.50   3.254065     0.1457E-01  -4.00073  10.00181
     180.50   3.256477     0.1559E-01  -3.97138   9.92844
     181.50   3.258877     0.1460E-01  -3.99991   9.99978
     182.50   3.261263     0.1857E-01  -3.89529   9.73823
     183.50   3.263636     0.1943E-01  -3.87577   9.68943
     184.50   3.265996     0.1493E-01  -3.99013   9.97533
     185.50   3.268344     0.2152E-01  -3.83140   9.57850
     186.50   3.270679     0.2551E-01  -3.75749   9.39372
     187.50   3.273001     0.2762E-01  -3.72290   9.30726
     188.50   3.275311     0.2973E-01  -3.69092   9.22730
     189.50   3.277609     0.3900E-01  -3.57310   8.93274
     190.50   3.279895     0.3807E-01  -3.58359   8.95899
     191.50   3.282169     0.4269E-01  -3.53390   8.83474
     192.50   3.284431     0.4310E-01  -3.52967   8.82418
     193.50   3.286681     0.3095E-01  -3.67348   9.18370
     194.50   3.288920     0.5628E-01  -3.41385   8.53462
     195.50   3.291147     0.5928E-01  -3.39126   8.47815
     196.70   3.293804     0.7700E-01  -3.27770   8.19424
     197.60   3.295787     0.7370E-01  -3.29674   8.24185
     198.40   3.297542     0.8735E-01  -3.22291   8.05727
     199.50   3.299943     0.9077E-01  -3.20623   8.01556
     200.50   3.302114     0.8894E-01  -3.21506   8.03766
     201.50   3.304275     0.9811E-01  -3.17247   7.93119
     202.50   3.306425     0.8051E-01  -3.25831   8.14578
     203.50   3.308564     0.1112E+00  -3.11822   7.79556
     204.50   3.310693     0.1287E+00  -3.05453   7.63633
     205.50   3.312812     0.1336E+00  -3.03839   7.59598
     206.50   3.314920     0.1338E+00  -3.03769   7.59424
     207.40   3.316809     0.1457E+00  -3.00072   7.50179
     207.80   3.317646     0.4406E+00  -2.52011   6.30028
     208.50   3.319106     0.6117E+00  -2.37764   5.94411
     209.50   3.321184     0.5607E+00  -2.41543   6.03859
     210.50   3.323252     0.5647E+00  -2.41237   6.03092
     211.50   3.325310     0.6783E+00  -2.33277   5.83192
     212.50   3.327359     0.5947E+00  -2.38985   5.97464
     213.50   3.329398     0.5991E+00  -2.38668   5.96671
     214.50   3.331427     0.8132E+00  -2.25398   5.63494
     215.50   3.333447     0.7603E+00  -2.28321   5.70802
     216.50   3.335458     0.6543E+00  -2.34837   5.87094
     217.50   3.337459     0.6416E+00  -2.35691   5.89227
     218.50   3.339452     0.9544E+00  -2.18446   5.46115
     219.50   3.341434     0.8879E+00  -2.21580   5.53949
     220.50   3.343409     0.9026E+00  -2.20870   5.52176
     221.50   3.345374     0.6492E+00  -2.35180   5.87950
     222.50   3.347330     0.8675E+00  -2.22590   5.56474
     223.50   3.349277     0.1278E+01  -2.05781   5.14454
     224.50   3.351216     0.1220E+01  -2.07770   5.19426
     225.50   3.353147     0.8757E+00  -2.22182   5.55455
     226.50   3.355068     0.7294E+00  -2.30121   5.75302
     227.50   3.356982     0.8104E+00  -2.25548   5.63871
     228.50   3.358886     0.1346E+01  -2.03528   5.08821
     229.50   3.360783     0.1018E+01  -2.15630   5.39075
     230.50   3.362671     0.1341E+01  -2.03690   5.09225
     231.50   3.364551     0.1092E+01  -2.12581   5.31454
     232.50   3.366423     0.9422E+00  -2.19003   5.47508
     233.50   3.368287     0.8336E+00  -2.24321   5.60802
     234.50   3.370143     0.5164E+00  -2.45119   6.12797
     235.50   3.371991     0.1090E+01  -2.12671   5.31678
     236.50   3.373831     0.6165E+00  -2.37426   5.93565
     237.50   3.375664     0.8198E+00  -2.25045   5.62612
     238.50   3.377488     0.4890E+00  -2.47485   6.18712
     239.50   3.379306     0.6277E+00  -2.36642   5.91605
     240.50   3.381115     0.6661E+00  -2.34065   5.85162
     241.50   3.382917     0.7428E+00  -2.29331   5.73328
     242.50   3.384712     0.1433E+01  -2.00799   5.01996
     243.50   3.386499     0.1500E+01  -1.98805   4.97013
     244.50   3.388279     0.1889E+01  -1.88792   4.71979
     245.50   3.390052     0.2084E+01  -1.84518   4.61295
     246.50   3.391817     0.1590E+01  -1.96274   4.90685
     247.50   3.393575     0.1373E+01  -2.02645   5.06613
     248.50   3.395326     0.5735E+00  -2.40564   6.01411
     249.50   3.397071     0.8957E+00  -2.21202   5.53005
     250.50   3.398808     0.1577E+01  -1.96639   4.91597
     251.30   3.400192     0.6182E+00  -2.37302   5.93256
     251.80   3.401056     0.4391E+00  -2.52166   6.30416
     252.50   3.402261     0.5105E+00  -2.45614   6.14036
     253.50   3.403978     0.1159E+01  -2.10005   5.25013
     254.50   3.405688     0.1224E+01  -2.07637   5.19091
     255.50   3.407391     0.3044E+01  -1.68073   4.20183
     256.50   3.409087     0.2015E+01  -1.86001   4.65002
     257.50   3.410777     0.2892E+01  -1.70294   4.25736
     258.50   3.412461     0.2472E+01  -1.77120   4.42800
     259.50   3.414137     0.2198E+01  -1.82224   4.55560
     260.50   3.415808     0.1865E+01  -1.89344   4.73359
     261.50   3.417472     0.1652E+01  -1.94619   4.86547
     262.50   3.419129     0.2406E+01  -1.78284   4.45709
     263.50   3.420781     0.5132E+01  -1.45393   3.63482
     264.50   3.422426     0.6946E+01  -1.32242   3.30604
     265.50   3.424065     0.1110E+02  -1.11870   2.79674
     266.50   3.425697     0.6182E+01  -1.37303   3.43258
     267.50   3.427324     0.7097E+01  -1.31310   3.28276
     268.50   3.428944     0.8847E+01  -1.21739   3.04347
     269.50   3.430559     0.5676E+01  -1.41011   3.52529
     270.50   3.432167     0.7638E+01  -1.28122   3.20306
     271.50   3.433770     0.5052E+01  -1.46074   3.65186
     272.50   3.435366     0.3261E+01  -1.65080   4.12701
     273.50   3.436957     0.4742E+01  -1.48818   3.72045
     274.50   3.438542     0.2634E+01  -1.74349   4.35873
     275.50   3.440122     0.3887E+01  -1.57457   3.93643
     276.50   3.441695     0.5447E+01  -1.42801   3.57002
     277.50   3.443263     0.5724E+01  -1.40649   3.51624
     278.50   3.444825     0.3124E+01  -1.66941   4.17353
     279.50   3.446382     0.1361E+01  -2.03038   5.07595
     280.50   3.447933     0.1687E+01  -1.93712   4.84280
     281.50   3.449478     0.4882E+01  -1.47557   3.68892
     282.50   3.451018     0.7392E+01  -1.29542   3.23855
     283.50   3.452553     0.6541E+01  -1.34852   3.37130
     284.50   3.454082     0.3789E+01  -1.58564   3.96411
     285.50   3.455606     0.1833E+01  -1.90106   4.75264
     286.50   3.457125     0.5962E+01  -1.38882   3.47206
     287.50   3.458638     0.1002E+02  -1.16326   2.90815
     288.50   3.460146     0.9208E+01  -1.20001   3.00002
     289.50   3.461648     0.1281E+02  -1.05665   2.64162
     291.00   3.463893     0.1923E+02  -0.88017   2.20042
     293.00   3.466868     0.1810E+02  -0.90647   2.26618
     295.00   3.469822     0.1791E+02  -0.91119   2.27798
     297.00   3.472756     0.1921E+02  -0.88056   2.20139
     299.00   3.475671     0.2081E+02  -0.84597   2.11492
     301.00   3.478566     0.2098E+02  -0.84244   2.10610
     303.00   3.481443     0.2339E+02  -0.79515   1.98787
     305.00   3.484300     0.2407E+02  -0.78271   1.95678
     307.00   3.487138     0.2361E+02  -0.79104   1.97761
     309.00   3.489959     0.2014E+02  -0.86010   2.15024
     311.00   3.492760     0.2503E+02  -0.76566   1.91415
     313.00   3.495544     0.2196E+02  -0.82256   2.05639
     315.00   3.498311     0.2210E+02  -0.81977   2.04942
     317.00   3.501059     0.2589E+02  -0.75104   1.87761
     319.00   3.503791     0.2177E+02  -0.82627   2.06568
     321.00   3.506505     0.2431E+02  -0.77848   1.94620
     323.00   3.509202     0.2067E+02  -0.84877   2.12191
     325.00   3.511883     0.3092E+02  -0.67396   1.68491
     327.00   3.514548     0.3605E+02  -0.60723   1.51807
     329.00   3.517196     0.3530E+02  -0.61635   1.54088
     331.00   3.519828     0.3191E+02  -0.66020   1.65049
     333.00   3.522444     0.3340E+02  -0.64037   1.60092
     335.00   3.525045     0.3233E+02  -0.65459   1.63648
     337.00   3.527630     0.2239E+02  -0.81414   2.03536
     339.00   3.530200     0.2684E+02  -0.73542   1.83855
     341.00   3.532754     0.2839E+02  -0.71099   1.77748
     343.00   3.535294     0.3105E+02  -0.67206   1.68014
     345.00   3.537819     0.3581E+02  -0.61014   1.52535
     347.00   3.540329     0.3767E+02  -0.58823   1.47058
     349.00   3.542825     0.4229E+02  -0.53796   1.34490
     351.00   3.545307     0.4461E+02  -0.51479   1.28698
     353.00   3.547775     0.3924E+02  -0.57039   1.42599
     355.00   3.550228     0.4367E+02  -0.52402   1.31005
     357.00   3.552668     0.3286E+02  -0.64751   1.61878
     359.00   3.555094     0.3522E+02  -0.61745   1.54363
     361.00   3.557507     0.4433E+02  -0.51752   1.29380
     363.00   3.559907     0.4517E+02  -0.50934   1.27334
     364.00   3.561101     0.4463E+02  -0.51459   1.28647
     365.00   3.562293     0.4693E+02  -0.49274   1.23184
     367.00   3.564666     0.5127E+02  -0.45428   1.13569
     369.00   3.567026     0.4478E+02  -0.51309   1.28274
     371.00   3.569374     0.4653E+02  -0.49646   1.24115
     373.00   3.571709     0.2777E+02  -0.72060   1.80151
     375.00   3.574031     0.3237E+02  -0.65409   1.63523
     377.00   3.576341     0.4505E+02  -0.51053   1.27632
     379.00   3.578639     0.4638E+02  -0.49789   1.24471
     381.00   3.580925     0.4210E+02  -0.53992   1.34980
     383.00   3.583199     0.2157E+02  -0.83024   2.07560
     385.00   3.585461     0.3087E+02  -0.67463   1.68657
     387.00   3.587711     0.3042E+02  -0.68108   1.70271
     389.00   3.589950     0.4181E+02  -0.54293   1.35733
     391.00   3.592177     0.5246E+02  -0.44431   1.11078
     393.00   3.594393     0.2374E+02  -0.78867   1.97167
     395.00   3.596597     0.4461E+02  -0.51477   1.28693
     397.00   3.598790     0.3033E+02  -0.68235   1.70588
     399.00   3.600973     0.7163E+02  -0.30908   0.77270
     401.00   3.603144     0.8006E+02  -0.26077   0.65193
     403.00   3.605305     0.7851E+02  -0.26927   0.67319
     405.00   3.607455     0.7493E+02  -0.28952   0.72381
     407.00   3.609594     0.6978E+02  -0.32047   0.80118
     409.00   3.611723     0.9006E+02  -0.20966   0.52416
     411.00   3.613842     0.8420E+02  -0.23888   0.59719
     413.00   3.615950     0.8072E+02  -0.25720   0.64299
     415.00   3.618048     0.7834E+02  -0.27020   0.67549
     417.00   3.620136     0.8003E+02  -0.26091   0.65228
     419.00   3.622214     0.7809E+02  -0.27157   0.67893
     421.00   3.624282     0.7919E+02  -0.26553   0.66382
     423.00   3.626340     0.7377E+02  -0.29630   0.74075
     425.00   3.628389     0.8056E+02  -0.25806   0.64514
     427.00   3.630428     0.7541E+02  -0.28675   0.71687
     429.00   3.632457     0.7027E+02  -0.31740   0.79351
     431.00   3.634477     0.6067E+02  -0.38121   0.95304
     433.00   3.636488     0.9321E+02  -0.19472   0.48680
     435.00   3.638489     0.9374E+02  -0.19225   0.48062
     437.00   3.640481     0.1017E+03  -0.15675   0.39187
     439.00   3.642465     0.8850E+02  -0.21726   0.54314
     441.00   3.644439     0.9462E+02  -0.18821   0.47052
     443.00   3.646404     0.1035E+03  -0.14927   0.37317
     445.00   3.648360     0.1048E+03  -0.14383   0.35957
     447.00   3.650307     0.1134E+03  -0.10958   0.27394
     449.00   3.652246     0.1172E+03  -0.09535   0.23837
     451.00   3.654176     0.1355E+03  -0.03238   0.08095
     453.00   3.656098     0.1167E+03  -0.09728   0.24320
     455.00   3.658011     0.1235E+03  -0.07263   0.18158
     457.00   3.659916     0.1348E+03  -0.03434   0.08584
     459.00   3.661813     0.1262E+03  -0.06313   0.15783
     461.00   3.663701     0.1307E+03  -0.04795   0.11988
     463.00   3.665581     0.1270E+03  -0.06044   0.15110
     465.00   3.667453     0.1289E+03  -0.05392   0.13479
     467.00   3.669317     0.1356E+03  -0.03197   0.07994
     469.00   3.671173     0.1322E+03  -0.04282   0.10704
     471.00   3.673021     0.1294E+03  -0.05219   0.13048
     473.00   3.674861     0.1338E+03  -0.03767   0.09418
     475.00   3.676694     0.1375E+03  -0.02578   0.06445
     477.00   3.678518     0.1340E+03  -0.03693   0.09232
     479.00   3.680336     0.1355E+03  -0.03216   0.08040
     481.00   3.682145     0.1363E+03  -0.02978   0.07446
     483.00   3.683947     0.1415E+03  -0.01335   0.03337
     485.00   3.685742     0.1351E+03  -0.03351   0.08377
     487.00   3.687529     0.1243E+03  -0.06973   0.17432
     489.00   3.689309     0.1375E+03  -0.02593   0.06482
     491.00   3.691082     0.1384E+03  -0.02301   0.05752
     493.00   3.692847     0.1357E+03  -0.03150   0.07876
     495.00   3.694605     0.1414E+03  -0.01366   0.03416
     497.00   3.696356     0.1355E+03  -0.03234   0.08086
     499.00   3.698101     0.1257E+03  -0.06494   0.16235
     501.00   3.699838     0.1178E+03  -0.09290   0.23224
     503.00   3.701568     0.1266E+03  -0.06169   0.15423
     505.00   3.703291     0.1265E+03  -0.06201   0.15504
     507.00   3.705008     0.1325E+03  -0.04199   0.10498
     509.00   3.706718     0.1248E+03  -0.06781   0.16952
     511.00   3.708421     0.1284E+03  -0.05573   0.13932
     513.00   3.710117     0.1242E+03  -0.06991   0.17478
     515.00   3.711807     0.1195E+03  -0.08677   0.21693
     517.00   3.713490     0.1056E+03  -0.14031   0.35078
     519.00   3.715167     0.1109E+03  -0.11914   0.29784
     521.00   3.716838     0.1226E+03  -0.07583   0.18957
     523.00   3.718502     0.1361E+03  -0.03026   0.07565
     525.00   3.720159     0.1432E+03  -0.00828   0.02070
     527.00   3.721811     0.1240E+03  -0.07066   0.17664
     529.00   3.723456     0.1466E+03   0.00200  -0.00501
     531.00   3.725095     0.1571E+03   0.03189  -0.07972
     533.00   3.726727     0.1362E+03  -0.02993   0.07483
     535.00   3.728354     0.1517E+03   0.01675  -0.04188
     537.00   3.729974     0.1501E+03   0.01228  -0.03071
     539.00   3.731589     0.1467E+03   0.00236  -0.00591
     541.00   3.733197     0.1445E+03  -0.00423   0.01057
     543.00   3.734800     0.1470E+03   0.00326  -0.00815
     545.00   3.736397     0.1501E+03   0.01209  -0.03023
     547.00   3.737987     0.1464E+03   0.00122  -0.00304
     549.00   3.739572     0.1488E+03   0.00852  -0.02129
     551.00   3.741152     0.1459E+03   0.00000   0.00000
     553.00   3.742725     0.1523E+03   0.01862  -0.04656
     555.00   3.744293     0.1554E+03   0.02719  -0.06797
     557.00   3.745855     0.1519E+03   0.01738  -0.04345
     559.00   3.747412     0.1475E+03   0.00464  -0.01159
     561.00   3.748963     0.1530E+03   0.02038  -0.05095
     563.00   3.750508     0.1521E+03   0.01782  -0.04456
     565.00   3.752048     0.1552E+03   0.02661  -0.06653
     567.00   3.753583     0.1514E+03   0.01587  -0.03968
     569.00   3.755112     0.1568E+03   0.03110  -0.07774
     571.00   3.756636     0.1515E+03   0.01633  -0.04084
     573.00   3.758155     0.1654E+03   0.05428  -0.13571
     575.00   3.759668     0.1596E+03   0.03878  -0.09694
     577.00   3.761176     0.1616E+03   0.04438  -0.11094
     579.00   3.762679     0.1551E+03   0.02645  -0.06612
     581.00   3.764176     0.1621E+03   0.04562  -0.11405
     583.00   3.765669     0.1665E+03   0.05719  -0.14297
     585.00   3.767156     0.1599E+03   0.03956  -0.09890
     587.00   3.768638     0.1594E+03   0.03844  -0.09611
     589.00   3.770115     0.1435E+03  -0.00726   0.01815
     591.00   3.771587     0.1569E+03   0.03141  -0.07853
     593.00   3.773055     0.1578E+03   0.03395  -0.08486
     595.00   3.774517     0.1583E+03   0.03529  -0.08821
     597.00   3.775974     0.1618E+03   0.04484  -0.11211
     599.00   3.777427     0.1595E+03   0.03871  -0.09678
     601.00   3.778874     0.1577E+03   0.03360  -0.08400
     603.00   3.780317     0.1626E+03   0.04682  -0.11706
     605.00   3.781755     0.1661E+03   0.05618  -0.14046
     607.00   3.783189     0.1656E+03   0.05494  -0.13734
     609.00   3.784617     0.1600E+03   0.03985  -0.09963
     611.00   3.786041     0.1612E+03   0.04321  -0.10801
     613.00   3.787461     0.1524E+03   0.01873  -0.04682
     615.00   3.788875     0.1564E+03   0.03004  -0.07509
     617.00   3.790285     0.1454E+03  -0.00151   0.00379
     619.00   3.791691     0.1544E+03   0.02457  -0.06141
     621.00   3.793092     0.1526E+03   0.01946  -0.04864
     623.00   3.794488     0.1476E+03   0.00500  -0.01251
     625.00   3.795880     0.1435E+03  -0.00736   0.01839
     627.00   3.797267     0.1511E+03   0.01501  -0.03752
     629.00   3.798651     0.1551E+03   0.02642  -0.06604
     631.00   3.800029     0.1521E+03   0.01799  -0.04497
     633.00   3.801404     0.1552E+03   0.02684  -0.06710
     635.00   3.802774     0.1566E+03   0.03064  -0.07660
     637.00   3.804139     0.1565E+03   0.03030  -0.07574
     639.00   3.805501     0.1599E+03   0.03959  -0.09898
     641.00   3.806858     0.1568E+03   0.03128  -0.07820
     643.00   3.808211     0.1587E+03   0.03639  -0.09097
     645.00   3.809560     0.1582E+03   0.03500  -0.08750
     647.00   3.810904     0.1581E+03   0.03462  -0.08654
     649.00   3.812245     0.1553E+03   0.02686  -0.06716
     651.00   3.813581     0.1614E+03   0.04376  -0.10941
     653.00   3.814913     0.1623E+03   0.04622  -0.11556
     655.00   3.816241     0.1586E+03   0.03616  -0.09039
     657.00   3.817565     0.1512E+03   0.01548  -0.03871
     659.00   3.818885     0.1582E+03   0.03489  -0.08723
     661.00   3.820201     0.1595E+03   0.03867  -0.09667
     663.00   3.821513     0.1570E+03   0.03173  -0.07932
     665.00   3.822822     0.1553E+03   0.02700  -0.06751
     667.00   3.824126     0.1508E+03   0.01424  -0.03559
     669.00   3.825426     0.1520E+03   0.01778  -0.04445
     671.00   3.826723     0.1449E+03  -0.00296   0.00741
     673.00   3.828015     0.1484E+03   0.00729  -0.01823
     675.00   3.829304     0.1457E+03  -0.00084   0.00211
     677.00   3.830589     0.1466E+03   0.00204  -0.00509
     679.00   3.831870     0.1452E+03  -0.00232   0.00581
     681.00   3.833147     0.1464E+03   0.00124  -0.00309
     683.00   3.834421     0.1489E+03   0.00883  -0.02207
     685.00   3.835690     0.1455E+03  -0.00122   0.00304
     687.00   3.836957     0.1485E+03   0.00768  -0.01921
     689.00   3.838219     0.1521E+03   0.01783  -0.04457
     691.00   3.839478     0.1535E+03   0.02206  -0.05515
     693.00   3.840733     0.1532E+03   0.02098  -0.05245
     695.00   3.841985     0.1541E+03   0.02357  -0.05893
     697.00   3.843233     0.1578E+03   0.03395  -0.08489
     699.00   3.844477     0.1587E+03   0.03650  -0.09125
     701.00   3.845718     0.1582E+03   0.03507  -0.08767
     703.00   3.846955     0.1599E+03   0.03960  -0.09900
     705.00   3.848189     0.1564E+03   0.03004  -0.07511
     707.00   3.849419     0.1476E+03   0.00501  -0.01252
     709.00   3.850646     0.1397E+03  -0.01891   0.04727
     711.00   3.851870     0.1349E+03  -0.03419   0.08548
     713.00   3.853090     0.1311E+03  -0.04673   0.11683
     715.00   3.854306     0.1307E+03  -0.04796   0.11990
     717.00   3.855519     0.1330E+03  -0.04022   0.10055
     719.00   3.856729     0.1306E+03  -0.04831   0.12078
     721.00   3.857935     0.1349E+03  -0.03415   0.08538
     723.00   3.859138     0.1396E+03  -0.01939   0.04847
     725.00   3.860338     0.1419E+03  -0.01222   0.03054
     727.00   3.861534     0.1442E+03  -0.00517   0.01291
     729.00   3.862728     0.1449E+03  -0.00308   0.00770
     731.00   3.863917     0.1524E+03   0.01876  -0.04690
     733.00   3.865104     0.1528E+03   0.02001  -0.05001
     735.00   3.866287     0.1581E+03   0.03479  -0.08697
     737.00   3.867467     0.1642E+03   0.05131  -0.12829
     739.00   3.868644     0.1612E+03   0.04307  -0.10769
     741.00   3.869818     0.1641E+03   0.05103  -0.12758
     743.00   3.870989     0.1691E+03   0.06401  -0.16002
     745.00   3.872156     0.1684E+03   0.06224  -0.15559
     747.00   3.873321     0.1744E+03   0.07726  -0.19315
     749.00   3.874482     0.1737E+03   0.07572  -0.18931
     751.00   3.875640     0.1750E+03   0.07886  -0.19716
     753.00   3.876795     0.1786E+03   0.08762  -0.21905
     755.00   3.877947     0.1802E+03   0.09148  -0.22870
     757.00   3.879096     0.1800E+03   0.09114  -0.22784
     759.00   3.880242     0.1728E+03   0.07330  -0.18326
     761.00   3.881385     0.1658E+03   0.05544  -0.13859
     763.00   3.882524     0.1584E+03   0.03570  -0.08926
     765.00   3.883662     0.1505E+03   0.01333  -0.03334
     767.00   3.884795     0.1411E+03  -0.01452   0.03630
     769.00   3.885926     0.1441E+03  -0.00561   0.01403
     771.00   3.887054     0.1414E+03  -0.01385   0.03462
     773.00   3.888180     0.1417E+03  -0.01268   0.03170
     775.00   3.889302     0.1407E+03  -0.01602   0.04004
     777.00   3.890421     0.1432E+03  -0.00834   0.02085
     779.00   3.891537     0.1438E+03  -0.00648   0.01621
     781.00   3.892651     0.1445E+03  -0.00425   0.01063
     783.00   3.893762     0.1447E+03  -0.00384   0.00959
     785.00   3.894870     0.1430E+03  -0.00890   0.02225
     787.00   3.895975     0.1462E+03   0.00067  -0.00167
     789.00   3.897077     0.1461E+03   0.00035  -0.00088
     791.00   3.898176     0.1421E+03  -0.01143   0.02858
     793.00   3.899273     0.1439E+03  -0.00610   0.01525
     795.00   3.900367     0.1442E+03  -0.00523   0.01307
     797.00   3.901458     0.1485E+03   0.00767  -0.01917
     799.00   3.902547     0.1490E+03   0.00894  -0.02235
     801.00   3.903632     0.1530E+03   0.02039  -0.05098
     803.00   3.904716     0.1545E+03   0.02473  -0.06182
     805.00   3.905796     0.1543E+03   0.02420  -0.06050
     807.00   3.906873     0.1595E+03   0.03868  -0.09671
     809.00   3.907948     0.1590E+03   0.03715  -0.09288
     811.00   3.909021     0.1610E+03   0.04273  -0.10683
     813.00   3.910090     0.1668E+03   0.05797  -0.14491
     815.00   3.911158     0.1697E+03   0.06550  -0.16375
     817.00   3.912222     0.1709E+03   0.06855  -0.17137
     819.00   3.913284     0.1677E+03   0.06033  -0.15084
     821.00   3.914343     0.1609E+03   0.04246  -0.10616
     823.00   3.915400     0.1614E+03   0.04376  -0.10941
     825.00   3.916454     0.1608E+03   0.04217  -0.10542
     827.00   3.917506     0.1616E+03   0.04416  -0.11040
     829.00   3.918555     0.1595E+03   0.03857  -0.09643
     831.00   3.919601     0.1545E+03   0.02475  -0.06188
     833.00   3.920645     0.1532E+03   0.02101  -0.05254
     835.00   3.921686     0.1526E+03   0.01933  -0.04834
     837.00   3.922725     0.1536E+03   0.02232  -0.05580
     839.00   3.923762     0.1494E+03   0.01024  -0.02560
     841.00   3.924796     0.1539E+03   0.02308  -0.05770
     843.00   3.925828     0.1488E+03   0.00836  -0.02089
     845.00   3.926857     0.1412E+03  -0.01440   0.03600
     847.00   3.927883     0.1405E+03  -0.01664   0.04159
     849.00   3.928908     0.1434E+03  -0.00752   0.01881
     851.00   3.929929     0.1373E+03  -0.02664   0.06660
     853.00   3.930949     0.1430E+03  -0.00875   0.02188
     855.00   3.931966     0.1394E+03  -0.02001   0.05004
     857.00   3.932981     0.1479E+03   0.00575  -0.01439
     859.00   3.933993     0.1466E+03   0.00202  -0.00506
     861.00   3.935003     0.1495E+03   0.01036  -0.02589
     863.00   3.936011     0.1529E+03   0.02010  -0.05025
     865.00   3.937016     0.1543E+03   0.02418  -0.06045
     867.00   3.938019     0.1458E+03  -0.00042   0.00105
     869.00   3.939020     0.1525E+03   0.01903  -0.04757
     871.00   3.940018     0.1573E+03   0.03267  -0.08167
     873.00   3.941014     0.1587E+03   0.03652  -0.09131
     875.00   3.942008     0.1580E+03   0.03451  -0.08627
     877.00   3.943000     0.1598E+03   0.03945  -0.09861
     879.00   3.943989     0.1634E+03   0.04904  -0.12261
     881.00   3.944976     0.1609E+03   0.04246  -0.10616
     883.00   3.945961     0.1630E+03   0.04788  -0.11971
     885.00   3.946943     0.1597E+03   0.03915  -0.09787
     887.00   3.947924     0.1526E+03   0.01934  -0.04836
     889.00   3.948902     0.1531E+03   0.02073  -0.05183
     891.00   3.949878     0.1550E+03   0.02625  -0.06562
     893.00   3.950851     0.1531E+03   0.02067  -0.05167
     895.00   3.951823     0.1539E+03   0.02306  -0.05765
     897.00   3.952792     0.1544E+03   0.02461  -0.06152
     899.00   3.953760     0.1549E+03   0.02578  -0.06444
     901.00   3.954725     0.1518E+03   0.01704  -0.04260
     903.00   3.955688     0.1578E+03   0.03405  -0.08513
     905.00   3.956649     0.1629E+03   0.04764  -0.11909
     907.00   3.957607     0.1635E+03   0.04947  -0.12367
     909.00   3.958564     0.1615E+03   0.04399  -0.10997
     911.00   3.959518     0.1634E+03   0.04912  -0.12281
     913.00   3.960471     0.1657E+03   0.05502  -0.13755
     915.00   3.961421     0.1647E+03   0.05259  -0.13148
     917.00   3.962369     0.1645E+03   0.05196  -0.12991
     919.00   3.963315     0.1657E+03   0.05516  -0.13790
     921.00   3.964260     0.1595E+03   0.03860  -0.09649
     923.00   3.965202     0.1578E+03   0.03399  -0.08498
     925.00   3.966142     0.1558E+03   0.02838  -0.07096
     927.00   3.967080     0.1579E+03   0.03431  -0.08577
     929.00   3.968016     0.1542E+03   0.02398  -0.05994
     931.00   3.968950     0.1550E+03   0.02605  -0.06513
     933.00   3.969882     0.1559E+03   0.02871  -0.07177
     935.00   3.970812     0.1557E+03   0.02819  -0.07049
     937.00   3.971740     0.1525E+03   0.01906  -0.04764
     939.00   3.972666     0.1559E+03   0.02874  -0.07185
     941.00   3.973590     0.1539E+03   0.02316  -0.05791
     943.00   3.974512     0.1568E+03   0.03117  -0.07791
     945.00   3.975432     0.1551E+03   0.02650  -0.06625
     947.00   3.976350     0.1585E+03   0.03589  -0.08972
     949.00   3.977266     0.1591E+03   0.03736  -0.09339
     951.00   3.978180     0.1554E+03   0.02723  -0.06806
     953.00   3.979093     0.1573E+03   0.03260  -0.08149
     955.00   3.980003     0.1556E+03   0.02776  -0.06941
     957.00   3.980912     0.1569E+03   0.03153  -0.07883
     959.00   3.981819     0.1590E+03   0.03724  -0.09310
     961.00   3.982723     0.1574E+03   0.03277  -0.08192
     963.00   3.983626     0.1586E+03   0.03619  -0.09046
     965.00   3.984527     0.1565E+03   0.03025  -0.07562
     967.00   3.985426     0.1568E+03   0.03130  -0.07824
     969.00   3.986324     0.1585E+03   0.03576  -0.08940
     971.00   3.987219     0.1563E+03   0.02983  -0.07457
     973.00   3.988113     0.1549E+03   0.02583  -0.06457
     975.00   3.989005     0.1546E+03   0.02501  -0.06253
     977.00   3.989895     0.1551E+03   0.02644  -0.06609
     979.00   3.990783     0.1535E+03   0.02205  -0.05512
     981.00   3.991669     0.1566E+03   0.03056  -0.07640
     983.00   3.992553     0.1553E+03   0.02713  -0.06782
     985.00   3.993436     0.1561E+03   0.02929  -0.07323
     987.00   3.994317     0.1551E+03   0.02638  -0.06595
     989.00   3.995196     0.1548E+03   0.02567  -0.06416
     991.00   3.996074     0.1546E+03   0.02502  -0.06254
     993.00   3.996949     0.1552E+03   0.02678  -0.06696
     995.00   3.997823     0.1556E+03   0.02787  -0.06969
     997.00   3.998695     0.1557E+03   0.02806  -0.07014
     999.00   3.999566     0.1553E+03   0.02687  -0.06718
    1003.00   4.001301     0.1552E+03   0.02664  -0.06661
    1008.00   4.003461     0.1542E+03   0.02397  -0.05992
    1013.00   4.005610     0.1557E+03   0.02799  -0.06999
    1018.00   4.007748     0.1541E+03   0.02354  -0.05885
    1023.00   4.009875     0.1544E+03   0.02449  -0.06123
    1028.00   4.011993     0.1545E+03   0.02484  -0.06211
    1033.00   4.014100     0.1530E+03   0.02063  -0.05157
    1038.00   4.016197     0.1523E+03   0.01847  -0.04617
    1043.00   4.018284     0.1529E+03   0.02010  -0.05024
    1048.00   4.020361     0.1519E+03   0.01734  -0.04336
    1053.00   4.022429     0.1509E+03   0.01446  -0.03615
    1058.00   4.024486     0.1488E+03   0.00828  -0.02071
    1063.00   4.026533     0.1480E+03   0.00615  -0.01537
    1068.00   4.028571     0.1469E+03   0.00299  -0.00748
    1073.00   4.030600     0.1474E+03   0.00433  -0.01082
    1078.00   4.032619     0.1464E+03   0.00130  -0.00326
    1083.00   4.034628     0.1445E+03  -0.00426   0.01065
    1088.00   4.036629     0.1437E+03  -0.00672   0.01680
    1093.00   4.038620     0.1432E+03  -0.00821   0.02054
    1098.00   4.040603     0.1412E+03  -0.01448   0.03619
    1103.00   4.042576     0.1406E+03  -0.01631   0.04078
    1108.00   4.044539     0.1384E+03  -0.02293   0.05733
    1113.00   4.046495     0.1384E+03  -0.02307   0.05768
    1118.00   4.048442     0.1377E+03  -0.02529   0.06322
    1123.00   4.050380     0.1378E+03  -0.02493   0.06232
    1128.00   4.052309     0.1371E+03  -0.02713   0.06783
    1133.00   4.054230     0.1370E+03  -0.02731   0.06828
    1138.00   4.056142     0.1365E+03  -0.02910   0.07274
    1143.00   4.058046     0.1357E+03  -0.03174   0.07936
    1148.00   4.059942     0.1366E+03  -0.02872   0.07179
    1153.00   4.061830     0.1365E+03  -0.02900   0.07250
    1158.00   4.063708     0.1354E+03  -0.03242   0.08106
    1163.00   4.065579     0.1342E+03  -0.03644   0.09111
    1168.00   4.067443     0.1342E+03  -0.03652   0.09130
    1173.00   4.069298     0.1345E+03  -0.03552   0.08880
    1178.00   4.071145     0.1326E+03  -0.04150   0.10376
    1183.00   4.072985     0.1316E+03  -0.04484   0.11209
    1188.00   4.074817     0.1304E+03  -0.04906   0.12266
    1193.00   4.076640     0.1318E+03  -0.04430   0.11075
    1198.00   4.078457     0.1289E+03  -0.05409   0.13522
    1203.00   4.080266     0.1305E+03  -0.04855   0.12137
    1208.00   4.082067     0.1297E+03  -0.05140   0.12850
    1213.00   4.083861     0.1297E+03  -0.05110   0.12775
    1218.00   4.085648     0.1298E+03  -0.05081   0.12702
    1223.00   4.087426     0.1292E+03  -0.05296   0.13240
    1228.00   4.089198     0.1285E+03  -0.05531   0.13829
    1233.00   4.090963     0.1279E+03  -0.05736   0.14340
    1238.00   4.092721     0.1275E+03  -0.05851   0.14628
    1243.00   4.094471     0.1261E+03  -0.06354   0.15884
    1248.00   4.096214     0.1261E+03  -0.06337   0.15841
    1253.00   4.097951     0.1253E+03  -0.06625   0.16563
    1258.00   4.099681     0.1248E+03  -0.06801   0.17003
    1263.00   4.101403     0.1244E+03  -0.06930   0.17324
    1268.00   4.103119     0.1237E+03  -0.07197   0.17992
    1273.00   4.104828     0.1236E+03  -0.07233   0.18083
    1278.00   4.106531     0.1236E+03  -0.07216   0.18040
    1283.00   4.108227     0.1208E+03  -0.08201   0.20504
    1288.00   4.109916     0.1219E+03  -0.07800   0.19500
    1293.00   4.111598     0.1210E+03  -0.08143   0.20356
    1298.00   4.113275     0.1217E+03  -0.07886   0.19715
    1303.00   4.114944     0.1206E+03  -0.08284   0.20709
    1308.00   4.116608     0.1207E+03  -0.08257   0.20643
    1313.00   4.118265     0.1188E+03  -0.08921   0.22302
    1318.00   4.119915     0.1184E+03  -0.09079   0.22698
    1323.00   4.121560     0.1183E+03  -0.09108   0.22770
    1328.00   4.123198     0.1168E+03  -0.09677   0.24192
    1333.00   4.124830     0.1169E+03  -0.09639   0.24098
    1338.00   4.126456     0.1160E+03  -0.09986   0.24965
    1343.00   4.128076     0.1160E+03  -0.09974   0.24936
    1348.00   4.129690     0.1152E+03  -0.10285   0.25712
    1353.00   4.131298     0.1146E+03  -0.10505   0.26262
    1358.00   4.132900     0.1132E+03  -0.11047   0.27617
    1363.00   4.134496     0.1130E+03  -0.11127   0.27816
    1368.00   4.136086     0.1136E+03  -0.10880   0.27200
    1373.00   4.137671     0.1141E+03  -0.10677   0.26693
    1378.00   4.139249     0.1141E+03  -0.10687   0.26718
    1383.00   4.140822     0.1141E+03  -0.10692   0.26730
    1388.00   4.142389     0.1131E+03  -0.11074   0.27686
    1393.00   4.143951     0.1044E+03  -0.14529   0.36323
    1398.00   4.145507     0.1051E+03  -0.14238   0.35594
    1403.00   4.147058     0.1045E+03  -0.14514   0.36284
    1408.00   4.148602     0.1052E+03  -0.14234   0.35584
    1413.00   4.150142     0.1044E+03  -0.14528   0.36319
    1418.00   4.151676     0.1051E+03  -0.14248   0.35621
    1423.00   4.153205     0.1045E+03  -0.14513   0.36282
    1428.00   4.154728     0.1037E+03  -0.14842   0.37106
    1433.00   4.156246     0.1054E+03  -0.14121   0.35303
    1438.00   4.157759     0.1060E+03  -0.13892   0.34730
    1443.00   4.159266     0.1045E+03  -0.14500   0.36249
    1448.00   4.160769     0.1061E+03  -0.13856   0.34640
    1453.00   4.162266     0.1055E+03  -0.14110   0.35275
    1457.00   4.163460     0.1060E+03  -0.13900   0.34750
    1462.00   4.164948     0.1014E+03  -0.15835   0.39588
    1468.00   4.166726     0.1020E+03  -0.15543   0.38859
    1473.00   4.168202     0.1016E+03  -0.15727   0.39317
    1478.00   4.169674     0.1025E+03  -0.15360   0.38401
    1483.00   4.171141     0.1031E+03  -0.15107   0.37767
    1488.00   4.172603     0.1027E+03  -0.15266   0.38165
    1493.00   4.174060     0.1048E+03  -0.14398   0.35995
    1498.00   4.175512     0.1045E+03  -0.14509   0.36274
    1503.00   4.176959     0.1037E+03  -0.14839   0.37097
    1508.00   4.178401     0.1042E+03  -0.14641   0.36602
    1513.00   4.179839     0.1058E+03  -0.13976   0.34941
    1518.00   4.181272     0.1063E+03  -0.13784   0.34461
    1523.00   4.182700     0.1063E+03  -0.13746   0.34366
    1528.00   4.184123     0.1071E+03  -0.13457   0.33642
    1533.00   4.185542     0.1069E+03  -0.13516   0.33791
    1538.00   4.186956     0.1046E+03  -0.14449   0.36123
    1543.00   4.188366     0.1058E+03  -0.13986   0.34966
    1548.00   4.189771     0.1062E+03  -0.13817   0.34541
    1553.00   4.191172     0.1058E+03  -0.13955   0.34887
    1558.00   4.192567     0.1026E+03  -0.15319   0.38298
    1563.00   4.193959     0.1038E+03  -0.14801   0.37004
    1568.00   4.195346     0.1039E+03  -0.14762   0.36904
    1573.00   4.196729     0.1058E+03  -0.13979   0.34948
    1578.00   4.198107     0.9657E+02  -0.17934   0.44835
    1583.00   4.199481     0.1001E+03  -0.16384   0.40959
    1588.00   4.200850     0.1008E+03  -0.16087   0.40217
    1593.00   4.202216     0.1035E+03  -0.14911   0.37276
    1598.00   4.203577     0.1060E+03  -0.13878   0.34696
    1605.00   4.205475     0.1005E+03  -0.16223   0.40557
    1615.00   4.208173     0.1037E+03  -0.14851   0.37128
    1625.00   4.210854     0.9928E+02  -0.16730   0.41826
    1635.00   4.213518     0.1029E+03  -0.15189   0.37971
    1645.00   4.216166     0.9886E+02  -0.16917   0.42293
    1655.00   4.218798     0.1007E+03  -0.16122   0.40304
    1665.00   4.221415     0.9761E+02  -0.17469   0.43673
    1675.00   4.224015     0.9835E+02  -0.17139   0.42849
    1685.00   4.226600     0.9845E+02  -0.17096   0.42740
    1695.00   4.229170     0.9624E+02  -0.18081   0.45203
    1705.00   4.231725     0.9494E+02  -0.18673   0.46682
    1715.00   4.234264     0.9294E+02  -0.19599   0.48998
    1725.00   4.236789     0.9123E+02  -0.20405   0.51013
    1735.00   4.239300     0.8860E+02  -0.21673   0.54183
    1745.00   4.241796     0.8739E+02  -0.22271   0.55677
    1755.00   4.244277     0.8627E+02  -0.22832   0.57080
    1765.00   4.246745     0.8420E+02  -0.23885   0.59712
    1775.00   4.249198     0.8232E+02  -0.24867   0.62167
    1785.00   4.251638     0.8115E+02  -0.25489   0.63723
    1795.00   4.254065     0.7928E+02  -0.26500   0.66251
    1805.00   4.256477     0.7761E+02  -0.27428   0.68571
    1815.00   4.258877     0.7624E+02  -0.28197   0.70492
    1825.00   4.261263     0.7512E+02  -0.28840   0.72100
    1835.00   4.263636     0.7401E+02  -0.29488   0.73720
    1845.00   4.265996     0.7263E+02  -0.30309   0.75772
    1855.00   4.268344     0.7190E+02  -0.30748   0.76869
    1865.00   4.270679     0.7032E+02  -0.31710   0.79274
    1875.00   4.273001     0.6891E+02  -0.32593   0.81481
    1885.00   4.275311     0.6816E+02  -0.33066   0.82666
    1895.00   4.277609     0.6597E+02  -0.34482   0.86205
    1905.00   4.279895     0.6579E+02  -0.34605   0.86512
    1915.00   4.282169     0.6439E+02  -0.35533   0.88833
    1925.00   4.284431     0.6324E+02  -0.36318   0.90795
    1935.00   4.286681     0.6158E+02  -0.37475   0.93688
    1945.00   4.288919     0.6011E+02  -0.38521   0.96302
    1955.00   4.291147     0.5951E+02  -0.38958   0.97396
    1965.00   4.293363     0.5832E+02  -0.39833   0.99583
    1975.00   4.295567     0.5691E+02  -0.40900   1.02249
    1985.00   4.297760     0.5606E+02  -0.41556   1.03891
    1995.00   4.299943     0.5530E+02  -0.42144   1.05359
    2005.00   4.302114     0.5481E+02  -0.42535   1.06338
    2015.00   4.304275     0.5404E+02  -0.43149   1.07872
    2025.00   4.306425     0.5287E+02  -0.44101   1.10252
    2035.00   4.308564     0.5215E+02  -0.44695   1.11739
    2045.00   4.310693     0.5179E+02  -0.44993   1.12482
    2055.00   4.312812     0.5097E+02  -0.45684   1.14209
    2065.00   4.314920     0.5016E+02  -0.46381   1.15952
    2075.00   4.317018     0.4957E+02  -0.46893   1.17231
    2085.00   4.319106     0.4886E+02  -0.47519   1.18799
    2095.00   4.321184     0.4804E+02  -0.48258   1.20646
    2105.00   4.323252     0.4766E+02  -0.48603   1.21509
    2115.00   4.325311     0.4688E+02  -0.49316   1.23290
    2125.00   4.327359     0.4620E+02  -0.49954   1.24885
    2135.00   4.329398     0.4571E+02  -0.50414   1.26036
    2145.00   4.331428     0.4503E+02  -0.51071   1.27677
    2155.00   4.333447     0.4436E+02  -0.51722   1.29305
    2165.00   4.335458     0.4355E+02  -0.52518   1.31294
    2175.00   4.337460     0.4295E+02  -0.53124   1.32811
    2185.00   4.339452     0.4241E+02  -0.53672   1.34181
    2195.00   4.341434     0.4186E+02  -0.54239   1.35597
    2205.00   4.343409     0.4094E+02  -0.55203   1.38008
    2215.00   4.345374     0.4069E+02  -0.55471   1.38678
    2225.00   4.347330     0.3981E+02  -0.56417   1.41043
    2235.00   4.349277     0.3928E+02  -0.56998   1.42496
    2245.00   4.351216     0.3871E+02  -0.57636   1.44090
    2255.00   4.353147     0.3820E+02  -0.58211   1.45528
    2265.00   4.355068     0.3745E+02  -0.59067   1.47668
    2275.00   4.356981     0.3711E+02  -0.59464   1.48661
    2285.00   4.358886     0.3639E+02  -0.60319   1.50797
    2295.00   4.360783     0.2904E+02  -0.70117   1.75292
    2305.00   4.362671     0.3232E+02  -0.65469   1.63671
    2315.00   4.364551     0.3224E+02  -0.65572   1.63931
    2325.00   4.366423     0.2701E+02  -0.73271   1.83178
    2335.00   4.368287     0.2964E+02  -0.69223   1.73058
    2345.00   4.370143     0.2709E+02  -0.73136   1.82840
    2355.00   4.371991     0.2509E+02  -0.76470   1.91176
    2365.00   4.373831     0.2730E+02  -0.72798   1.81996
    2375.00   4.375664     0.2539E+02  -0.75952   1.89879
    2385.00   4.377488     0.2362E+02  -0.79093   1.97733
    2395.00   4.379306     0.2532E+02  -0.76071   1.90178
    2405.00   4.381115     0.2418E+02  -0.78065   1.95163
    2415.00   4.382917     0.2225E+02  -0.81678   2.04196
    2425.00   4.384712     0.2364E+02  -0.79056   1.97640
    2435.00   4.386499     0.2242E+02  -0.81364   2.03410
    2445.00   4.388279     0.2253E+02  -0.81145   2.02862
    2455.00   4.390052     0.2166E+02  -0.82849   2.07121
    2465.00   4.391817     0.2154E+02  -0.83099   2.07747
    2475.00   4.393575     0.2093E+02  -0.84350   2.10875
    2485.00   4.395327     0.1812E+02  -0.90602   2.26504
    2495.00   4.397071     0.1722E+02  -0.92816   2.32040
    2505.00   4.398808     0.1750E+02  -0.92115   2.30287
    2515.00   4.400538     0.1674E+02  -0.94037   2.35092
    2525.00   4.402262     0.1716E+02  -0.92968   2.32419
    2535.00   4.403978     0.1722E+02  -0.92809   2.32022
    2545.00   4.405688     0.1708E+02  -0.93174   2.32935
    2555.00   4.407391     0.1710E+02  -0.93109   2.32771
    2565.00   4.409087     0.1729E+02  -0.92645   2.31612
    2575.00   4.410777     0.1747E+02  -0.92187   2.30467
    2585.00   4.412460     0.1712E+02  -0.93069   2.32674
    2595.00   4.414137     0.1720E+02  -0.92876   2.32190
    2605.00   4.415808     0.1721E+02  -0.92843   2.32107
    2615.00   4.417472     0.1696E+02  -0.93467   2.33667
    2625.00   4.419129     0.1674E+02  -0.94051   2.35127
    2635.00   4.420781     0.1674E+02  -0.94040   2.35100
    2645.00   4.422426     0.1661E+02  -0.94388   2.35971
    2655.00   4.424065     0.1642E+02  -0.94880   2.37201
    2665.00   4.425697     0.1619E+02  -0.95500   2.38750
    2675.00   4.427324     0.1632E+02  -0.95144   2.37860
    2685.00   4.428945     0.1616E+02  -0.95573   2.38933
    2695.00   4.430559     0.1590E+02  -0.96291   2.40728
    2705.00   4.432167     0.1588E+02  -0.96341   2.40852
    2715.00   4.433770     0.1574E+02  -0.96704   2.41760
    2725.00   4.435367     0.1565E+02  -0.96955   2.42387
    2735.00   4.436957     0.1542E+02  -0.97609   2.44021
    2745.00   4.438542     0.1538E+02  -0.97714   2.44285
    2755.00   4.440122     0.1529E+02  -0.97978   2.44945
    2765.00   4.441695     0.1511E+02  -0.98485   2.46214
    2775.00   4.443263     0.1493E+02  -0.99006   2.47515
    2785.00   4.444825     0.1487E+02  -0.99179   2.47947
    2795.00   4.446382     0.1480E+02  -0.99378   2.48445
    2805.00   4.447933     0.1466E+02  -0.99806   2.49515
    2815.00   4.449478     0.1449E+02  -1.00324   2.50811
    2825.00   4.451018     0.1438E+02  -1.00628   2.51570
    2835.00   4.452553     0.1430E+02  -1.00887   2.52218
    2845.00   4.454082     0.1414E+02  -1.01363   2.53408
    2855.00   4.455606     0.1401E+02  -1.01768   2.54420
    2865.00   4.457125     0.1389E+02  -1.02144   2.55361
    2875.00   4.458638     0.1377E+02  -1.02534   2.56334
    2885.00   4.460146     0.1365E+02  -1.02902   2.57256
    2895.00   4.461648     0.1353E+02  -1.03286   2.58214
    2905.00   4.463146     0.1340E+02  -1.03707   2.59268
    2915.00   4.464639     0.1329E+02  -1.04061   2.60151
    2925.00   4.466126     0.1310E+02  -1.04677   2.61693
    2935.00   4.467608     0.1305E+02  -1.04845   2.62113
    2945.00   4.469085     0.1291E+02  -1.05320   2.63301
    2955.00   4.470557     0.1280E+02  -1.05695   2.64237
    2965.00   4.472025     0.1271E+02  -1.06018   2.65046
    2975.00   4.473487     0.1259E+02  -1.06410   2.66024
    2985.00   4.474944     0.1246E+02  -1.06866   2.67166
    2995.00   4.476397     0.1234E+02  -1.07291   2.68227
    3005.00   4.477844     0.1224E+02  -1.07648   2.69119
    3015.00   4.479287     0.1217E+02  -1.07899   2.69746
    3025.00   4.480725     0.1206E+02  -1.08297   2.70744
    3035.00   4.482159     0.1195E+02  -1.08697   2.71742
    3045.00   4.483587     0.1189E+02  -1.08901   2.72252
    3055.00   4.485011     0.1179E+02  -1.09271   2.73179
    3065.00   4.486430     0.1169E+02  -1.09619   2.74047
    3075.00   4.487845     0.1162E+02  -1.09888   2.74719
    3085.00   4.489255     0.1151E+02  -1.10328   2.75821
    3095.00   4.490661     0.1143E+02  -1.10606   2.76515
    3105.00   4.492062     0.1136E+02  -1.10873   2.77182
    3115.00   4.493458     0.1122E+02  -1.11416   2.78540
    3125.00   4.494850     0.1116E+02  -1.11638   2.79095
    3135.00   4.496238     0.1107E+02  -1.11990   2.79975
    3145.00   4.497621     0.1098E+02  -1.12367   2.80917
    3155.00   4.499000     0.1087E+02  -1.12789   2.81971
    3165.00   4.500374     0.1077E+02  -1.13194   2.82985
    3175.00   4.501744     0.1070E+02  -1.13492   2.83731
    3185.00   4.503109     0.1060E+02  -1.13871   2.84678
    3195.00   4.504471     0.1052E+02  -1.14207   2.85517
    3210.00   4.506505     0.1038E+02  -1.14816   2.87040
    3230.00   4.509202     0.1019E+02  -1.15619   2.89048
    3250.00   4.511883     0.1000E+02  -1.16404   2.91011
    3270.00   4.514548     0.9813E+01  -1.17237   2.93093
    3290.00   4.517196     0.9616E+01  -1.18118   2.95294
    3310.00   4.519828     0.9444E+01  -1.18900   2.97251
    3330.00   4.522444     0.9256E+01  -1.19775   2.99439
    3350.00   4.525045     0.9092E+01  -1.20552   3.01379
    3370.00   4.527630     0.8909E+01  -1.21433   3.03582
    3390.00   4.530200     0.8725E+01  -1.22340   3.05850
    3410.00   4.532754     0.8544E+01  -1.23250   3.08126
    3430.00   4.535294     0.8392E+01  -1.24032   3.10081
    3450.00   4.537819     0.8228E+01  -1.24886   3.12216
    3470.00   4.540329     0.8060E+01  -1.25783   3.14459
    3490.00   4.542826     0.7902E+01  -1.26645   3.16614
    3510.00   4.545307     0.7749E+01  -1.27492   3.18729
    3530.00   4.547775     0.7585E+01  -1.28424   3.21060
    3550.00   4.550228     0.7442E+01  -1.29247   3.23118
    3570.00   4.552669     0.7293E+01  -1.30129   3.25322
    3590.00   4.555095     0.7151E+01  -1.30979   3.27448
    3610.00   4.557508     0.7020E+01  -1.31782   3.29454
    3630.00   4.559907     0.6881E+01  -1.32656   3.31639
    3650.00   4.562293     0.6735E+01  -1.33581   3.33953
    3670.00   4.564666     0.6601E+01  -1.34459   3.36146
    3690.00   4.567026     0.6457E+01  -1.35417   3.38542
    3710.00   4.569374     0.6326E+01  -1.36307   3.40769
    3730.00   4.571709     0.6220E+01  -1.37042   3.42605
    3750.00   4.574031     0.6079E+01  -1.38037   3.45092
    3770.00   4.576342     0.5982E+01  -1.38732   3.46830
    3790.00   4.578639     0.5864E+01  -1.39601   3.49003
    3810.00   4.580925     0.5756E+01  -1.40407   3.51018
    3830.00   4.583199     0.5653E+01  -1.41192   3.52980
    3850.00   4.585461     0.5547E+01  -1.42012   3.55030
    3870.00   4.587711     0.5428E+01  -1.42951   3.57377
    3890.00   4.589950     0.5331E+01  -1.43736   3.59340
    3910.00   4.592176     0.5235E+01  -1.44527   3.61318
    3930.00   4.594393     0.5136E+01  -1.45353   3.63382
    3950.00   4.596597     0.5027E+01  -1.46290   3.65725
    3970.00   4.598790     0.4937E+01  -1.47068   3.67669
    3990.00   4.600973     0.4830E+01  -1.48022   3.70055
    4010.00   4.603145     0.4751E+01  -1.48742   3.71854
    4030.00   4.605305     0.4670E+01  -1.49482   3.73704
    4050.00   4.607455     0.4577E+01  -1.50361   3.75903
    4070.00   4.609594     0.4497E+01  -1.51123   3.77808
    4090.00   4.611723     0.4416E+01  -1.51913   3.79784
    4110.00   4.613842     0.4341E+01  -1.52658   3.81646
    4130.00   4.615950     0.4270E+01  -1.53378   3.83444
    4150.00   4.618048     0.4193E+01  -1.54164   3.85409
    4170.00   4.620136     0.4122E+01  -1.54909   3.87272
    4190.00   4.622214     0.4048E+01  -1.55691   3.89226
    4210.00   4.624282     0.3975E+01  -1.56484   3.91210
    4230.00   4.626340     0.3922E+01  -1.57072   3.92681
    4250.00   4.628389     0.3849E+01  -1.57882   3.94705
    4270.00   4.630428     0.3790E+01  -1.58550   3.96376
    4290.00   4.632457     0.3635E+01  -1.60362   4.00905
    4310.00   4.634478     0.3477E+01  -1.62303   4.05756
    4330.00   4.636488     0.3457E+01  -1.62544   4.06359
    4350.00   4.638489     0.3327E+01  -1.64218   4.10546
    4370.00   4.640481     0.3244E+01  -1.65316   4.13290
    4390.00   4.642465     0.3179E+01  -1.66186   4.15465
    4410.00   4.644439     0.3072E+01  -1.67680   4.19200
    4430.00   4.646404     0.3025E+01  -1.68344   4.20859
    4450.00   4.648360     0.2972E+01  -1.69108   4.22770
    4470.00   4.650308     0.2883E+01  -1.70439   4.26097
    4490.00   4.652246     0.2868E+01  -1.70656   4.26641
    4510.00   4.654177     0.2803E+01  -1.71659   4.29147
    4530.00   4.656098     0.2738E+01  -1.72673   4.31683
    4550.00   4.658011     0.2717E+01  -1.73003   4.32508
    4570.00   4.659916     0.2682E+01  -1.73564   4.33910
    4590.00   4.661813     0.2609E+01  -1.74768   4.36921
    4610.00   4.663701     0.2602E+01  -1.74893   4.37232
    4630.00   4.665581     0.2554E+01  -1.75693   4.39232
    4650.00   4.667453     0.2525E+01  -1.76184   4.40460
    4670.00   4.669317     0.2504E+01  -1.76552   4.41380
    4690.00   4.671173     0.2459E+01  -1.77342   4.43354
    4710.00   4.673021     0.2419E+01  -1.78058   4.45145
    4730.00   4.674861     0.2411E+01  -1.78191   4.45476
    4750.00   4.676694     0.2362E+01  -1.79086   4.47715
    4770.00   4.678518     0.2331E+01  -1.79670   4.49175
    4790.00   4.680336     0.2306E+01  -1.80134   4.50334
    4810.00   4.682145     0.2255E+01  -1.81095   4.52738
    4830.00   4.683947     0.2251E+01  -1.81172   4.52929
    4850.00   4.685741     0.2213E+01  -1.81929   4.54823
    4870.00   4.687529     0.2173E+01  -1.82718   4.56794
    4890.00   4.689309     0.2143E+01  -1.83314   4.58286
    4910.00   4.691082     0.2116E+01  -1.83861   4.59652
    4930.00   4.692847     0.2084E+01  -1.84530   4.61324
    4950.00   4.694605     0.2051E+01  -1.85230   4.63076
    4970.00   4.696356     0.2032E+01  -1.85620   4.64049
    4990.00   4.698101     0.2002E+01  -1.86265   4.65662
    5010.00   4.699838     0.1978E+01  -1.86800   4.66999
    5030.00   4.701568     0.1952E+01  -1.87377   4.68443
    5050.00   4.703291     0.1914E+01  -1.88216   4.70540
    5070.00   4.705008     0.1896E+01  -1.88624   4.71559
    5090.00   4.706717     0.1872E+01  -1.89184   4.72961
    5110.00   4.708421     0.1841E+01  -1.89916   4.74789
    5130.00   4.710117     0.1826E+01  -1.90275   4.75687
    5150.00   4.711807     0.1795E+01  -1.91007   4.77518
    5170.00   4.713490     0.1783E+01  -1.91302   4.78255
    5190.00   4.715167     0.1753E+01  -1.92045   4.80111
    5210.00   4.716838     0.1733E+01  -1.92534   4.81335
    5230.00   4.718502     0.1705E+01  -1.93243   4.83108
    5250.00   4.720160     0.1689E+01  -1.93649   4.84122
    5270.00   4.721810     0.1677E+01  -1.93966   4.84915
    5290.00   4.723455     0.1643E+01  -1.94850   4.87126
    5310.00   4.725095     0.1622E+01  -1.95407   4.88517
    5330.00   4.726727     0.1606E+01  -1.95837   4.89593
    5350.00   4.728354     0.1587E+01  -1.96369   4.90922
    5370.00   4.729974     0.1568E+01  -1.96872   4.92179
    5390.00   4.731589     0.1550E+01  -1.97384   4.93459
    5410.00   4.733197     0.1531E+01  -1.97913   4.94782
    5430.00   4.734800     0.1506E+01  -1.98648   4.96620
    5450.00   4.736397     0.1495E+01  -1.98949   4.97372
    5470.00   4.737988     0.1472E+01  -1.99621   4.99052
    5490.00   4.739573     0.1456E+01  -2.00102   5.00254
    5510.00   4.741152     0.1437E+01  -2.00672   5.01679
    5530.00   4.742725     0.1434E+01  -2.00777   5.01943
    5550.00   4.744293     0.1401E+01  -2.01762   5.04405
    5570.00   4.745855     0.1394E+01  -2.01984   5.04959
    5590.00   4.747412     0.1373E+01  -2.02666   5.06665
    5610.00   4.748963     0.1360E+01  -2.03059   5.07648
    5630.00   4.750508     0.1338E+01  -2.03779   5.09447
    5650.00   4.752048     0.1328E+01  -2.04092   5.10229
    5670.00   4.753583     0.1312E+01  -2.04621   5.11553
    5690.00   4.755112     0.1291E+01  -2.05329   5.13323
    5710.00   4.756636     0.1283E+01  -2.05610   5.14025
    5730.00   4.758155     0.1266E+01  -2.06159   5.15397
    5750.00   4.759668     0.1251E+01  -2.06678   5.16695
    5770.00   4.761176     0.1235E+01  -2.07244   5.18111
    5790.00   4.762679     0.1225E+01  -2.07617   5.19043
    5810.00   4.764176     0.1207E+01  -2.08255   5.20638
    5830.00   4.765669     0.1194E+01  -2.08734   5.21836
    5850.00   4.767156     0.1180E+01  -2.09229   5.23071
    5870.00   4.768638     0.1163E+01  -2.09862   5.24656
    5890.00   4.770115     0.1150E+01  -2.10339   5.25846
    5910.00   4.771587     0.1138E+01  -2.10812   5.27029
    5930.00   4.773055     0.1125E+01  -2.11290   5.28226
    5950.00   4.774517     0.1110E+01  -2.11876   5.29691
    5970.00   4.775974     0.1100E+01  -2.12287   5.30717
    5990.00   4.777427     0.1087E+01  -2.12799   5.31996
    6010.00   4.778874     0.1074E+01  -2.13307   5.33269
    6030.00   4.780317     0.1062E+01  -2.13821   5.34553
    6050.00   4.781755     0.1047E+01  -2.14416   5.36039
    6070.00   4.783189     0.1035E+01  -2.14907   5.37267
    6090.00   4.784617     0.1023E+01  -2.15419   5.38547
    6110.00   4.786041     0.1010E+01  -2.15966   5.39915
    6130.00   4.787460     0.1000E+01  -2.16406   5.41014
    6150.00   4.788875     0.9894E+00  -2.16881   5.42202
    6170.00   4.790285     0.9791E+00  -2.17333   5.43333
    6190.00   4.791691     0.9676E+00  -2.17848   5.44620
    6210.00   4.793092     0.9572E+00  -2.18316   5.45789
    6230.00   4.794488     0.9449E+00  -2.18879   5.47197
    6250.00   4.795880     0.9329E+00  -2.19432   5.48581
    6270.00   4.797267     0.9223E+00  -2.19929   5.49822
    6290.00   4.798651     0.9125E+00  -2.20393   5.50982
    6310.00   4.800029     0.9017E+00  -2.20913   5.52282
    6330.00   4.801404     0.8932E+00  -2.21322   5.53304
    6350.00   4.802773     0.8821E+00  -2.21864   5.54661
    6370.00   4.804139     0.8737E+00  -2.22280   5.55700
    6390.00   4.805501     0.8626E+00  -2.22836   5.57090
    6420.00   4.807535     0.8484E+00  -2.23560   5.58900
    6460.00   4.810232     0.8289E+00  -2.24567   5.61417
    6500.00   4.812913     0.8107E+00  -2.25534   5.63834
    6540.00   4.815578     0.7927E+00  -2.26509   5.66271
    6580.00   4.818226     0.7757E+00  -2.27448   5.68620
    6620.00   4.820858     0.7583E+00  -2.28433   5.71082
    6660.00   4.823474     0.7419E+00  -2.29386   5.73465
    6700.00   4.826075     0.7258E+00  -2.30333   5.75834
    6740.00   4.828660     0.7098E+00  -2.31306   5.78265
    6780.00   4.831230     0.6945E+00  -2.32248   5.80620
    6820.00   4.833784     0.6795E+00  -2.33198   5.82996
    6860.00   4.836324     0.6652E+00  -2.34121   5.85303
    6900.00   4.838849     0.6509E+00  -2.35069   5.87671
    6940.00   4.841359     0.6371E+00  -2.35997   5.89993
    6980.00   4.843855     0.6237E+00  -2.36920   5.92300
    7020.00   4.846337     0.6103E+00  -2.37860   5.94651
    7060.00   4.848804     0.5978E+00  -2.38763   5.96907
    7100.00   4.851258     0.5853E+00  -2.39681   5.99203
    7140.00   4.853698     0.5732E+00  -2.40586   6.01465
    7180.00   4.856124     0.5613E+00  -2.41499   6.03747
    7220.00   4.858537     0.5498E+00  -2.42397   6.05992
    7260.00   4.860937     0.5385E+00  -2.43301   6.08252
    7300.00   4.863323     0.5276E+00  -2.44190   6.10475
    7340.00   4.865696     0.5168E+00  -2.45089   6.12723
    7380.00   4.868056     0.5064E+00  -2.45966   6.14914
    7420.00   4.870404     0.4960E+00  -2.46874   6.17184
    7460.00   4.872739     0.4860E+00  -2.47754   6.19385
    7500.00   4.875061     0.4764E+00  -2.48617   6.21543
    7540.00   4.877371     0.4669E+00  -2.49496   6.23739
    7580.00   4.879669     0.4580E+00  -2.50333   6.25832
    7620.00   4.881955     0.4490E+00  -2.51194   6.27985
    7660.00   4.884229     0.4402E+00  -2.52050   6.30125
    7700.00   4.886491     0.4316E+00  -2.52910   6.32275
    7740.00   4.888741     0.4233E+00  -2.53752   6.34381
    7780.00   4.890980     0.4152E+00  -2.54595   6.36486
    7820.00   4.893207     0.4072E+00  -2.55437   6.38593
    7860.00   4.895422     0.3994E+00  -2.56273   6.40681
    7900.00   4.897627     0.3918E+00  -2.57106   6.42765
    7940.00   4.899820     0.3844E+00  -2.57935   6.44838
    7980.00   4.902003     0.3772E+00  -2.58758   6.46894
    8020.00   4.904174     0.3700E+00  -2.59593   6.48983
    8060.00   4.906335     0.3631E+00  -2.60410   6.51025
    8100.00   4.908485     0.3565E+00  -2.61214   6.53035
    8140.00   4.910625     0.3498E+00  -2.62031   6.55079
    8180.00   4.912753     0.3435E+00  -2.62828   6.57070
    8220.00   4.914872     0.3372E+00  -2.63629   6.59071
    8260.00   4.916980     0.3310E+00  -2.64430   6.61075
    8300.00   4.919078     0.3250E+00  -2.65225   6.63061
    8340.00   4.921166     0.3191E+00  -2.66028   6.65069
    8380.00   4.923244     0.3133E+00  -2.66817   6.67042
    8420.00   4.925312     0.3078E+00  -2.67590   6.68974
    8460.00   4.927370     0.3023E+00  -2.68375   6.70938
    8500.00   4.929419     0.2969E+00  -2.69151   6.72878
    8540.00   4.931458     0.2917E+00  -2.69923   6.74808
    8580.00   4.933487     0.2866E+00  -2.70691   6.76728
    8620.00   4.935507     0.2816E+00  -2.71458   6.78644
    8660.00   4.937518     0.2767E+00  -2.72218   6.80544
    8700.00   4.939519     0.2719E+00  -2.72980   6.82449
    8740.00   4.941511     0.2672E+00  -2.73737   6.84343
    8780.00   4.943495     0.2626E+00  -2.74493   6.86231
    8820.00   4.945469     0.2580E+00  -2.75250   6.88126
    8860.00   4.947433     0.2536E+00  -2.75996   6.89989
    8900.00   4.949390     0.2493E+00  -2.76744   6.91859
    8940.00   4.951338     0.2451E+00  -2.77477   6.93694
    8980.00   4.953277     0.2409E+00  -2.78230   6.95575
    9020.00   4.955207     0.2370E+00  -2.78951   6.97377
    9060.00   4.957129     0.2330E+00  -2.79678   6.99195
    9100.00   4.959042     0.2290E+00  -2.80431   7.01077
    9140.00   4.960946     0.2253E+00  -2.81141   7.02854
    9180.00   4.962843     0.2216E+00  -2.81864   7.04659
    9220.00   4.964731     0.2180E+00  -2.82574   7.06434
    9260.00   4.966611     0.2144E+00  -2.83293   7.08231
    9300.00   4.968483     0.2109E+00  -2.84005   7.10013
    9340.00   4.970347     0.2075E+00  -2.84718   7.11794
    9380.00   4.972203     0.2041E+00  -2.85424   7.13559
    9420.00   4.974051     0.2009E+00  -2.86129   7.15323
    9460.00   4.975891     0.1976E+00  -2.86835   7.17088
    9500.00   4.977724     0.1945E+00  -2.87534   7.18835
    9540.00   4.979548     0.1914E+00  -2.88229   7.20574
    9580.00   4.981365     0.1883E+00  -2.88922   7.22305
    9620.00   4.983175     0.1854E+00  -2.89615   7.24036
    9660.00   4.984977     0.1825E+00  -2.90301   7.25752
    9700.00   4.986772     0.1796E+00  -2.90986   7.27464
    9740.00   4.988559     0.1767E+00  -2.91691   7.29227
    9780.00   4.990339     0.1740E+00  -2.92357   7.30892
    9820.00   4.992111     0.1714E+00  -2.93028   7.32571
    9860.00   4.993877     0.1687E+00  -2.93703   7.34259
    9900.00   4.995635     0.1661E+00  -2.94374   7.35935
    9940.00   4.997386     0.1636E+00  -2.95048   7.37620
    9980.00   4.999130     0.1611E+00  -2.95714   7.39285
   10020.00   5.000868     0.1586E+00  -2.96379   7.40947
   20000.00   5.301030     0.1087E-01  -4.12805  10.32012
   40000.00   5.602060     0.7057E-03  -5.31559  13.28897
   60000.00   5.778151     0.1409E-03  -6.01538  15.03844
   80000.00   5.903090     0.4475E-04  -6.51336  16.28339
  100000.00   6.000000     0.1836E-04  -6.90025  17.25063
  120000.00   6.079181     0.8861E-05  -7.21671  18.04178
  140000.00   6.146128     0.4783E-05  -7.48448  18.71119
  160000.00   6.204120     0.2803E-05  -7.71654  19.29134
