age =   10.0    [Fe/H] =   -0.25

wavele(nm) log wave(A)   Hlam       log(Hlam/Hlam(V))  Hlam(mag(V)) 
      89.50   2.951823     0.1059E-12 -15.27691  38.19227
      90.50   2.956649     0.2226E-12 -14.95427  37.38568
      91.50   2.961421     0.3491E-12 -14.75898  36.89745
      92.50   2.966142     0.1264E-09 -12.19997  30.49994
      93.50   2.970812     0.1746E-09 -12.05993  30.14981
      94.50   2.975432     0.2474E-09 -11.90844  29.77111
      95.50   2.980003     0.3673E-09 -11.73683  29.34207
      96.50   2.984527     0.5229E-09 -11.58346  28.95865
      97.50   2.989005     0.6853E-09 -11.46601  28.66503
      98.50   2.993436     0.9583E-09 -11.32037  28.30092
      99.50   2.997823     0.1285E-08 -11.19293  27.98233
     100.50   3.002166     0.1865E-08 -11.03116  27.57791
     101.50   3.006466     0.2488E-08 -10.90597  27.26492
     102.50   3.010724     0.2814E-08 -10.85253  27.13132
     103.50   3.014940     0.4531E-08 -10.64564  26.61411
     104.50   3.019116     0.6146E-08 -10.51329  26.28323
     105.50   3.023252     0.7817E-08 -10.40880  26.02201
     106.50   3.027350     0.1030E-07 -10.28909  25.72272
     107.50   3.031409     0.1372E-07 -10.16467  25.41166
     108.50   3.035430     0.1820E-07 -10.04190  25.10474
     109.50   3.039414     0.2275E-07  -9.94494  24.86236
     110.50   3.043362     0.1646E-06  -9.08533  22.71334
     111.50   3.047275     0.3132E-06  -8.80608  22.01519
     112.50   3.051152     0.4774E-06  -8.62298  21.55746
     113.50   3.054996     0.7200E-06  -8.44455  21.11138
     114.50   3.058805     0.9494E-06  -8.32442  20.81104
     115.50   3.062582     0.1078E-05  -8.26922  20.67305
     116.50   3.066326     0.1429E-05  -8.14688  20.36721
     117.50   3.070038     0.1796E-05  -8.04754  20.11884
     118.50   3.073718     0.1828E-05  -8.03986  20.09966
     119.50   3.077368     0.1296E-05  -8.18943  20.47357
     120.50   3.080987     0.1176E-05  -8.23135  20.57838
     121.50   3.084576     0.2180E-06  -8.96333  22.40833
     122.50   3.088136     0.1533E-05  -8.11636  20.29089
     123.50   3.091667     0.3979E-05  -7.70214  19.25535
     124.50   3.095169     0.6899E-05  -7.46307  18.65769
     125.50   3.098644     0.9378E-05  -7.32976  18.32441
     126.50   3.102091     0.1033E-04  -7.28763  18.21908
     127.50   3.105510     0.1359E-04  -7.16880  17.92199
     128.50   3.108903     0.1682E-04  -7.07615  17.69038
     129.50   3.112270     0.2038E-04  -6.99258  17.48144
     130.50   3.115611     0.2183E-04  -6.96282  17.40706
     131.50   3.118926     0.2794E-04  -6.85566  17.13914
     132.50   3.122216     0.3049E-04  -6.81769  17.04422
     133.50   3.125481     0.3405E-04  -6.76970  16.92426
     134.50   3.128722     0.4018E-04  -6.69782  16.74455
     135.50   3.131939     0.4567E-04  -6.64221  16.60552
     136.50   3.135133     0.5004E-04  -6.60258  16.50646
     137.50   3.138303     0.5373E-04  -6.57167  16.42917
     138.50   3.141450     0.5860E-04  -6.53401  16.33501
     139.50   3.144574     0.6623E-04  -6.48080  16.20200
     140.50   3.147676     0.7833E-04  -6.40793  16.01983
     141.50   3.150756     0.8825E-04  -6.35614  15.89035
     142.50   3.153815     0.9916E-04  -6.30551  15.76378
     143.50   3.156852     0.1148E-03  -6.24196  15.60489
     144.20   3.158965     0.1479E-03  -6.13194  15.32984
     144.70   3.160469     0.1334E-03  -6.17683  15.44207
     145.50   3.162863     0.1572E-03  -6.10549  15.26373
     146.50   3.165838     0.1918E-03  -6.01904  15.04761
     147.50   3.168792     0.2161E-03  -5.96725  14.91812
     148.50   3.171726     0.2334E-03  -5.93368  14.83421
     149.50   3.174641     0.3025E-03  -5.82109  14.55272
     150.50   3.177536     0.3618E-03  -5.74335  14.35836
     151.20   3.179552     0.2859E-03  -5.84570  14.61426
     151.70   3.180986     0.3524E-03  -5.75479  14.38697
     152.50   3.183270     0.7048E-03  -5.45378  13.63444
     153.50   3.186108     0.1052E-02  -5.28005  13.20013
     154.50   3.188928     0.9144E-03  -5.34075  13.35187
     155.50   3.191730     0.1352E-02  -5.17094  12.92736
     156.50   3.194514     0.1287E-02  -5.19229  12.98071
     157.50   3.197281     0.2139E-02  -4.97175  12.42939
     158.50   3.200029     0.2557E-02  -4.89408  12.23520
     159.50   3.202761     0.2961E-02  -4.83041  12.07601
     160.50   3.205475     0.3147E-02  -4.80392  12.00980
     161.50   3.208173     0.3526E-02  -4.75455  11.88637
     162.50   3.210853     0.3825E-02  -4.71928  11.79821
     163.50   3.213518     0.4528E-02  -4.64594  11.61486
     164.50   3.216166     0.6136E-02  -4.51401  11.28503
     165.50   3.218798     0.4022E-02  -4.69746  11.74366
     166.50   3.221414     0.6980E-02  -4.45800  11.14499
     167.20   3.223236     0.5073E-02  -4.59663  11.49159
     167.70   3.224533     0.2023E-01  -3.99585   9.98964
     168.50   3.226600     0.2098E-01  -3.98014   9.95036
     169.50   3.229170     0.2369E-01  -3.92738   9.81846
     170.50   3.231725     0.2796E-01  -3.85537   9.63844
     171.50   3.234264     0.3723E-01  -3.73097   9.32742
     172.50   3.236789     0.4563E-01  -3.64263   9.10657
     173.50   3.239300     0.6034E-01  -3.52124   8.80309
     174.50   3.241796     0.7406E-01  -3.43228   8.58071
     175.50   3.244277     0.1098E+00  -3.26145   8.15363
     176.50   3.246745     0.8514E-01  -3.37173   8.42932
     177.50   3.249198     0.1057E+00  -3.27779   8.19448
     178.50   3.251638     0.1381E+00  -3.16154   7.90386
     179.50   3.254065     0.1984E+00  -3.00425   7.51062
     180.50   3.256477     0.1946E+00  -3.01265   7.53164
     181.50   3.258877     0.1676E+00  -3.07759   7.69397
     182.50   3.261263     0.2064E+00  -2.98721   7.46802
     183.50   3.263636     0.2118E+00  -2.97588   7.43969
     184.50   3.265996     0.1251E+00  -3.20448   8.01119
     185.50   3.268344     0.2427E+00  -2.91678   7.29195
     186.50   3.270679     0.3225E+00  -2.79340   6.98349
     187.50   3.273001     0.3265E+00  -2.78792   6.96980
     188.50   3.275311     0.3464E+00  -2.76230   6.90575
     189.50   3.277609     0.4611E+00  -2.63807   6.59516
     190.50   3.279895     0.4313E+00  -2.66705   6.66763
     191.50   3.282169     0.4876E+00  -2.61384   6.53460
     192.50   3.284431     0.4070E+00  -2.69223   6.73058
     193.50   3.286681     0.2082E+00  -2.98344   7.45860
     194.50   3.288920     0.5904E+00  -2.53073   6.32683
     195.50   3.291147     0.6206E+00  -2.50904   6.27260
     196.70   3.293804     0.8241E+00  -2.38591   5.96477
     197.60   3.295787     0.6951E+00  -2.45983   6.14957
     198.40   3.297542     0.8943E+00  -2.35037   5.87593
     199.50   3.299943     0.9733E+00  -2.31361   5.78403
     200.50   3.302114     0.8874E+00  -2.35376   5.88439
     201.50   3.304275     0.9723E+00  -2.31407   5.78517
     202.50   3.306425     0.7016E+00  -2.45576   6.13940
     203.50   3.308564     0.1099E+01  -2.26090   5.65226
     204.50   3.310693     0.1287E+01  -2.19214   5.48034
     205.50   3.312812     0.1231E+01  -2.21152   5.52879
     206.50   3.314920     0.1177E+01  -2.23117   5.57794
     207.40   3.316809     0.1354E+01  -2.17039   5.42598
     207.80   3.317646     0.3360E+01  -1.77552   4.43880
     208.50   3.319106     0.4328E+01  -1.66560   4.16400
     209.50   3.321184     0.3905E+01  -1.71024   4.27561
     210.50   3.323252     0.3689E+01  -1.73498   4.33744
     211.50   3.325310     0.4372E+01  -1.66119   4.15298
     212.50   3.327359     0.3664E+01  -1.73790   4.34476
     213.50   3.329398     0.3508E+01  -1.75675   4.39188
     214.50   3.331427     0.4778E+01  -1.62258   4.05646
     215.50   3.333447     0.4658E+01  -1.63368   4.08419
     216.50   3.335458     0.3848E+01  -1.71668   4.29171
     217.50   3.337459     0.3926E+01  -1.70793   4.26983
     218.50   3.339452     0.5390E+01  -1.57029   3.92572
     219.50   3.341434     0.5272E+01  -1.57988   3.94970
     220.50   3.343409     0.5093E+01  -1.59493   3.98732
     221.50   3.345374     0.3687E+01  -1.73518   4.33795
     222.50   3.347330     0.4644E+01  -1.63501   4.08752
     223.50   3.349277     0.6501E+01  -1.48889   3.72222
     224.50   3.351216     0.6132E+01  -1.51423   3.78559
     225.50   3.353147     0.4333E+01  -1.66512   4.16280
     226.50   3.355068     0.3868E+01  -1.71438   4.28595
     227.50   3.356982     0.4262E+01  -1.67229   4.18074
     228.50   3.358886     0.6347E+01  -1.49932   3.74830
     229.50   3.360783     0.5008E+01  -1.60220   4.00549
     230.50   3.362671     0.6483E+01  -1.49012   3.72531
     231.50   3.364551     0.5313E+01  -1.57655   3.94138
     232.50   3.366423     0.4289E+01  -1.66952   4.17379
     233.50   3.368287     0.3489E+01  -1.75912   4.39780
     234.50   3.370143     0.2062E+01  -1.98767   4.96917
     235.50   3.371991     0.4905E+01  -1.61122   4.02805
     236.50   3.373831     0.2405E+01  -1.92070   4.80175
     237.50   3.375664     0.3468E+01  -1.76177   4.40441
     238.50   3.377488     0.1703E+01  -2.07073   5.17682
     239.50   3.379306     0.2342E+01  -1.93230   4.83075
     240.50   3.381115     0.2378E+01  -1.92572   4.81430
     241.50   3.382917     0.3043E+01  -1.81863   4.54658
     242.50   3.384712     0.6130E+01  -1.51438   3.78595
     243.50   3.386499     0.6159E+01  -1.51235   3.78087
     244.50   3.388279     0.7613E+01  -1.42031   3.55077
     245.50   3.390052     0.8176E+01  -1.38931   3.47326
     246.50   3.391817     0.6822E+01  -1.46797   3.66992
     247.50   3.393575     0.5792E+01  -1.53902   3.84756
     248.50   3.395326     0.2821E+01  -1.85142   4.62855
     249.50   3.397071     0.4016E+01  -1.69809   4.24522
     250.50   3.398808     0.6926E+01  -1.46140   3.65350
     251.30   3.400192     0.2329E+01  -1.93472   4.83679
     251.80   3.401056     0.1538E+01  -2.11491   5.28726
     252.50   3.402261     0.1923E+01  -2.01780   5.04450
     253.50   3.403978     0.4172E+01  -1.68147   4.20367
     254.50   3.405688     0.4501E+01  -1.64858   4.12145
     255.50   3.407391     0.9169E+01  -1.33955   3.34886
     256.50   3.409087     0.6451E+01  -1.49222   3.73054
     257.50   3.410777     0.8657E+01  -1.36450   3.41125
     258.50   3.412461     0.7450E+01  -1.42973   3.57433
     259.50   3.414137     0.6510E+01  -1.48831   3.72077
     260.50   3.415808     0.5383E+01  -1.57087   3.92717
     261.50   3.417472     0.4706E+01  -1.62925   4.07312
     262.50   3.419129     0.6986E+01  -1.45767   3.64417
     263.50   3.420781     0.1335E+02  -1.17634   2.94086
     264.50   3.422426     0.1848E+02  -1.03522   2.58806
     265.50   3.424065     0.2604E+02  -0.88615   2.21538
     266.50   3.425697     0.1639E+02  -1.08739   2.71847
     267.50   3.427324     0.1876E+02  -1.02856   2.57139
     268.50   3.428944     0.2202E+02  -0.95908   2.39770
     269.50   3.430559     0.1537E+02  -1.11519   2.78796
     270.50   3.432167     0.1933E+02  -1.01566   2.53916
     271.50   3.433770     0.1347E+02  -1.17247   2.93117
     272.50   3.435366     0.1042E+02  -1.28420   3.21049
     273.50   3.436957     0.1373E+02  -1.16432   2.91079
     274.50   3.438542     0.7100E+01  -1.45061   3.62653
     275.50   3.440122     0.1042E+02  -1.28407   3.21019
     276.50   3.441695     0.1427E+02  -1.14730   2.86824
     277.50   3.443263     0.1523E+02  -1.11910   2.79775
     278.50   3.444825     0.8194E+01  -1.38839   3.47096
     279.50   3.446382     0.3107E+01  -1.80949   4.52372
     280.50   3.447933     0.3939E+01  -1.70652   4.26629
     281.50   3.449478     0.1307E+02  -1.18573   2.96432
     282.50   3.451018     0.2001E+02  -1.00054   2.50136
     283.50   3.452553     0.1856E+02  -1.03326   2.58316
     284.50   3.454082     0.1252E+02  -1.20416   3.01039
     285.50   3.455606     0.6198E+01  -1.50964   3.77411
     286.50   3.457125     0.1828E+02  -1.03986   2.59964
     287.50   3.458638     0.2538E+02  -0.89729   2.24323
     288.50   3.460146     0.2286E+02  -0.94277   2.35693
     289.50   3.461648     0.2843E+02  -0.84810   2.12026
     291.00   3.463893     0.3927E+02  -0.70786   1.76965
     293.00   3.466868     0.3556E+02  -0.75088   1.87721
     295.00   3.469822     0.3408E+02  -0.76940   1.92350
     297.00   3.472756     0.3591E+02  -0.74668   1.86669
     299.00   3.475671     0.3736E+02  -0.72947   1.82367
     301.00   3.478566     0.3789E+02  -0.72330   1.80825
     303.00   3.481443     0.4042E+02  -0.69532   1.73830
     305.00   3.484300     0.4233E+02  -0.67521   1.68802
     307.00   3.487138     0.4314E+02  -0.66696   1.66740
     309.00   3.489959     0.4015E+02  -0.69822   1.74554
     311.00   3.492760     0.4626E+02  -0.63663   1.59156
     313.00   3.495544     0.4258E+02  -0.67268   1.68170
     315.00   3.498311     0.4190E+02  -0.67969   1.69922
     317.00   3.501059     0.4724E+02  -0.62759   1.56898
     319.00   3.503791     0.4123E+02  -0.68665   1.71662
     321.00   3.506505     0.4594E+02  -0.63971   1.59928
     323.00   3.509202     0.3948E+02  -0.70552   1.76380
     325.00   3.511883     0.5499E+02  -0.56155   1.40386
     327.00   3.514548     0.6370E+02  -0.49771   1.24427
     329.00   3.517196     0.6226E+02  -0.50769   1.26922
     331.00   3.519828     0.5824E+02  -0.53662   1.34155
     333.00   3.522444     0.5997E+02  -0.52392   1.30980
     335.00   3.525045     0.5815E+02  -0.53731   1.34327
     337.00   3.527630     0.4300E+02  -0.66843   1.67108
     339.00   3.530200     0.5030E+02  -0.60029   1.50072
     341.00   3.532754     0.5225E+02  -0.58376   1.45940
     343.00   3.535294     0.5632E+02  -0.55122   1.37805
     345.00   3.537819     0.6052E+02  -0.51994   1.29984
     347.00   3.540329     0.6292E+02  -0.50305   1.25762
     349.00   3.542825     0.6977E+02  -0.45821   1.14552
     351.00   3.545307     0.7392E+02  -0.43311   1.08277
     353.00   3.547775     0.6676E+02  -0.47737   1.19343
     355.00   3.550228     0.7600E+02  -0.42103   1.05259
     357.00   3.552668     0.5676E+02  -0.54780   1.36950
     359.00   3.555094     0.5786E+02  -0.53948   1.34870
     361.00   3.557507     0.7037E+02  -0.45448   1.13621
     363.00   3.559907     0.7227E+02  -0.44294   1.10734
     364.00   3.561101     0.7400E+02  -0.43261   1.08153
     365.00   3.562293     0.8006E+02  -0.39845   0.99613
     367.00   3.564666     0.8465E+02  -0.37423   0.93558
     369.00   3.567026     0.7686E+02  -0.41614   1.04036
     371.00   3.569374     0.8131E+02  -0.39170   0.97926
     373.00   3.571709     0.5575E+02  -0.55563   1.38907
     375.00   3.574031     0.6341E+02  -0.49972   1.24931
     377.00   3.576341     0.8085E+02  -0.39420   0.98550
     379.00   3.578639     0.8352E+02  -0.38006   0.95015
     381.00   3.580925     0.8022E+02  -0.39760   0.99400
     383.00   3.583199     0.4713E+02  -0.62852   1.57131
     385.00   3.585461     0.6565E+02  -0.48460   1.21150
     387.00   3.587711     0.6470E+02  -0.49097   1.22741
     389.00   3.589950     0.7661E+02  -0.41755   1.04388
     391.00   3.592177     0.9162E+02  -0.33987   0.84967
     393.00   3.594393     0.4526E+02  -0.64615   1.61538
     395.00   3.596597     0.8031E+02  -0.39709   0.99274
     397.00   3.598790     0.5539E+02  -0.55846   1.39615
     399.00   3.600973     0.1164E+03  -0.23598   0.58995
     401.00   3.603144     0.1273E+03  -0.19692   0.49230
     403.00   3.605305     0.1260E+03  -0.20137   0.50341
     405.00   3.607455     0.1213E+03  -0.21818   0.54544
     407.00   3.609594     0.1153E+03  -0.23995   0.59987
     409.00   3.611723     0.1389E+03  -0.15909   0.39773
     411.00   3.613842     0.1305E+03  -0.18618   0.46544
     413.00   3.615950     0.1291E+03  -0.19082   0.47705
     415.00   3.618048     0.1267E+03  -0.19918   0.49795
     417.00   3.620136     0.1288E+03  -0.19203   0.48008
     419.00   3.622214     0.1252E+03  -0.20410   0.51025
     421.00   3.624282     0.1265E+03  -0.19981   0.49953
     423.00   3.626340     0.1204E+03  -0.22138   0.55344
     425.00   3.628389     0.1266E+03  -0.19954   0.49884
     427.00   3.630428     0.1195E+03  -0.22462   0.56155
     429.00   3.632457     0.1112E+03  -0.25558   0.63894
     431.00   3.634477     0.9533E+02  -0.32262   0.80655
     433.00   3.636488     0.1396E+03  -0.15704   0.39259
     435.00   3.638489     0.1375E+03  -0.16359   0.40897
     437.00   3.640481     0.1495E+03  -0.12727   0.31818
     439.00   3.642465     0.1342E+03  -0.17420   0.43550
     441.00   3.644439     0.1430E+03  -0.14645   0.36613
     443.00   3.646404     0.1551E+03  -0.11133   0.27833
     445.00   3.648360     0.1556E+03  -0.10974   0.27436
     447.00   3.650307     0.1657E+03  -0.08247   0.20618
     449.00   3.652246     0.1702E+03  -0.07087   0.17717
     451.00   3.654176     0.1911E+03  -0.02065   0.05163
     453.00   3.656098     0.1694E+03  -0.07298   0.18244
     455.00   3.658011     0.1772E+03  -0.05333   0.13332
     457.00   3.659916     0.1909E+03  -0.02117   0.05292
     459.00   3.661813     0.1799E+03  -0.04673   0.11683
     461.00   3.663701     0.1860E+03  -0.03239   0.08096
     463.00   3.665581     0.1821E+03  -0.04156   0.10389
     465.00   3.667453     0.1843E+03  -0.03625   0.09063
     467.00   3.669317     0.1917E+03  -0.01921   0.04802
     469.00   3.671173     0.1886E+03  -0.02642   0.06604
     471.00   3.673021     0.1845E+03  -0.03592   0.08981
     473.00   3.674861     0.1902E+03  -0.02262   0.05655
     475.00   3.676694     0.1946E+03  -0.01280   0.03200
     477.00   3.678518     0.1908E+03  -0.02132   0.05330
     479.00   3.680336     0.1919E+03  -0.01870   0.04675
     481.00   3.682145     0.1925E+03  -0.01739   0.04348
     483.00   3.683947     0.1975E+03  -0.00621   0.01553
     485.00   3.685742     0.1892E+03  -0.02496   0.06239
     487.00   3.687529     0.1740E+03  -0.06144   0.15359
     489.00   3.689309     0.1926E+03  -0.01713   0.04283
     491.00   3.691082     0.1938E+03  -0.01442   0.03605
     493.00   3.692847     0.1908E+03  -0.02125   0.05313
     495.00   3.694605     0.1979E+03  -0.00547   0.01369
     497.00   3.696356     0.1922E+03  -0.01809   0.04521
     499.00   3.698101     0.1799E+03  -0.04673   0.11683
     501.00   3.699838     0.1709E+03  -0.06915   0.17287
     503.00   3.701568     0.1818E+03  -0.04220   0.10549
     505.00   3.703291     0.1817E+03  -0.04257   0.10642
     507.00   3.705008     0.1893E+03  -0.02467   0.06168
     509.00   3.706718     0.1803E+03  -0.04587   0.11468
     511.00   3.708421     0.1843E+03  -0.03645   0.09113
     513.00   3.710117     0.1794E+03  -0.04800   0.12000
     515.00   3.711807     0.1734E+03  -0.06280   0.15701
     517.00   3.713490     0.1579E+03  -0.10341   0.25853
     519.00   3.715167     0.1638E+03  -0.08755   0.21888
     521.00   3.716838     0.1761E+03  -0.05614   0.14034
     523.00   3.718502     0.1904E+03  -0.02216   0.05539
     525.00   3.720159     0.1980E+03  -0.00520   0.01299
     527.00   3.721811     0.1760E+03  -0.05638   0.14095
     529.00   3.723456     0.2015E+03   0.00231  -0.00578
     531.00   3.725095     0.2125E+03   0.02553  -0.06382
     533.00   3.726727     0.1897E+03  -0.02391   0.05977
     535.00   3.728354     0.2070E+03   0.01416  -0.03540
     537.00   3.729974     0.2051E+03   0.01008  -0.02519
     539.00   3.731589     0.2015E+03   0.00241  -0.00601
     541.00   3.733197     0.1984E+03  -0.00441   0.01102
     543.00   3.734800     0.2014E+03   0.00227  -0.00568
     545.00   3.736397     0.2053E+03   0.01049  -0.02622
     547.00   3.737987     0.2008E+03   0.00091  -0.00228
     549.00   3.739572     0.2030E+03   0.00557  -0.01392
     551.00   3.741152     0.2004E+03   0.00000   0.00000
     553.00   3.742725     0.2070E+03   0.01417  -0.03542
     555.00   3.744293     0.2105E+03   0.02130  -0.05324
     557.00   3.745855     0.2056E+03   0.01115  -0.02788
     559.00   3.747412     0.2010E+03   0.00126  -0.00316
     561.00   3.748963     0.2068E+03   0.01369  -0.03422
     563.00   3.750508     0.2064E+03   0.01288  -0.03220
     565.00   3.752048     0.2095E+03   0.01926  -0.04814
     567.00   3.753583     0.2048E+03   0.00951  -0.02378
     569.00   3.755112     0.2107E+03   0.02183  -0.05458
     571.00   3.756636     0.2045E+03   0.00888  -0.02221
     573.00   3.758155     0.2197E+03   0.03991  -0.09977
     575.00   3.759668     0.2136E+03   0.02770  -0.06925
     577.00   3.761176     0.2159E+03   0.03233  -0.08082
     579.00   3.762679     0.2090E+03   0.01818  -0.04544
     581.00   3.764176     0.2161E+03   0.03283  -0.08206
     583.00   3.765669     0.2203E+03   0.04107  -0.10268
     585.00   3.767156     0.2128E+03   0.02607  -0.06517
     587.00   3.768638     0.2120E+03   0.02439  -0.06099
     589.00   3.770115     0.1904E+03  -0.02213   0.05532
     591.00   3.771587     0.2082E+03   0.01672  -0.04179
     593.00   3.773055     0.2101E+03   0.02053  -0.05133
     595.00   3.774517     0.2108E+03   0.02204  -0.05510
     597.00   3.775974     0.2144E+03   0.02941  -0.07352
     599.00   3.777427     0.2121E+03   0.02464  -0.06159
     601.00   3.778874     0.2098E+03   0.01990  -0.04975
     603.00   3.780317     0.2146E+03   0.02968  -0.07421
     605.00   3.781755     0.2186E+03   0.03787  -0.09468
     607.00   3.783189     0.2177E+03   0.03600  -0.09000
     609.00   3.784617     0.2119E+03   0.02429  -0.06073
     611.00   3.786041     0.2129E+03   0.02629  -0.06572
     613.00   3.787461     0.2030E+03   0.00569  -0.01422
     615.00   3.788875     0.2076E+03   0.01535  -0.03837
     617.00   3.790285     0.1959E+03  -0.00992   0.02480
     619.00   3.791691     0.2054E+03   0.01080  -0.02699
     621.00   3.793092     0.2037E+03   0.00709  -0.01772
     623.00   3.794488     0.1981E+03  -0.00491   0.01227
     625.00   3.795880     0.1930E+03  -0.01631   0.04078
     627.00   3.797267     0.2019E+03   0.00335  -0.00838
     629.00   3.798651     0.2059E+03   0.01174  -0.02934
     631.00   3.800029     0.2024E+03   0.00438  -0.01096
     633.00   3.801404     0.2060E+03   0.01195  -0.02986
     635.00   3.802774     0.2079E+03   0.01598  -0.03996
     637.00   3.804139     0.2077E+03   0.01562  -0.03906
     639.00   3.805501     0.2105E+03   0.02137  -0.05342
     641.00   3.806858     0.2068E+03   0.01359  -0.03398
     643.00   3.808211     0.2087E+03   0.01770  -0.04424
     645.00   3.809560     0.2083E+03   0.01677  -0.04192
     647.00   3.810904     0.2079E+03   0.01593  -0.03982
     649.00   3.812245     0.2043E+03   0.00849  -0.02122
     651.00   3.813581     0.2109E+03   0.02225  -0.05563
     653.00   3.814913     0.2120E+03   0.02438  -0.06094
     655.00   3.816241     0.2063E+03   0.01261  -0.03153
     657.00   3.817565     0.1941E+03  -0.01395   0.03487
     659.00   3.818885     0.2065E+03   0.01316  -0.03289
     661.00   3.820201     0.2085E+03   0.01731  -0.04328
     663.00   3.821513     0.2062E+03   0.01241  -0.03101
     665.00   3.822822     0.2042E+03   0.00811  -0.02027
     667.00   3.824126     0.1994E+03  -0.00209   0.00522
     669.00   3.825426     0.2014E+03   0.00213  -0.00531
     671.00   3.826723     0.1938E+03  -0.01447   0.03618
     673.00   3.828015     0.1974E+03  -0.00648   0.01620
     675.00   3.829304     0.1943E+03  -0.01348   0.03371
     677.00   3.830589     0.1954E+03  -0.01100   0.02750
     679.00   3.831870     0.1940E+03  -0.01399   0.03497
     681.00   3.833147     0.1949E+03  -0.01204   0.03011
     683.00   3.834421     0.1976E+03  -0.00616   0.01539
     685.00   3.835690     0.1937E+03  -0.01464   0.03661
     687.00   3.836957     0.1968E+03  -0.00790   0.01975
     689.00   3.838219     0.2004E+03  -0.00002   0.00004
     691.00   3.839478     0.2014E+03   0.00223  -0.00557
     693.00   3.840733     0.2009E+03   0.00105  -0.00263
     695.00   3.841985     0.2010E+03   0.00132  -0.00331
     697.00   3.843233     0.2042E+03   0.00823  -0.02057
     699.00   3.844477     0.2042E+03   0.00820  -0.02051
     701.00   3.845718     0.2024E+03   0.00432  -0.01081
     703.00   3.846955     0.2040E+03   0.00786  -0.01965
     705.00   3.848189     0.2011E+03   0.00152  -0.00380
     707.00   3.849419     0.1928E+03  -0.01672   0.04180
     709.00   3.850646     0.1855E+03  -0.03359   0.08397
     711.00   3.851870     0.1803E+03  -0.04592   0.11479
     713.00   3.853090     0.1759E+03  -0.05660   0.14149
     715.00   3.854306     0.1756E+03  -0.05746   0.14364
     717.00   3.855519     0.1780E+03  -0.05137   0.12842
     719.00   3.856729     0.1752E+03  -0.05832   0.14581
     721.00   3.857935     0.1800E+03  -0.04671   0.11677
     723.00   3.859138     0.1848E+03  -0.03506   0.08764
     725.00   3.860338     0.1870E+03  -0.03011   0.07527
     727.00   3.861534     0.1891E+03  -0.02512   0.06281
     729.00   3.862728     0.1889E+03  -0.02558   0.06395
     731.00   3.863917     0.1956E+03  -0.01059   0.02647
     733.00   3.865104     0.1957E+03  -0.01023   0.02558
     735.00   3.866287     0.1990E+03  -0.00312   0.00780
     737.00   3.867467     0.2037E+03   0.00707  -0.01767
     739.00   3.868644     0.2002E+03  -0.00045   0.00113
     741.00   3.869818     0.1998E+03  -0.00122   0.00305
     743.00   3.870989     0.2040E+03   0.00787  -0.01967
     745.00   3.872156     0.2040E+03   0.00784  -0.01961
     747.00   3.873321     0.2067E+03   0.01340  -0.03351
     749.00   3.874482     0.2056E+03   0.01115  -0.02787
     751.00   3.875640     0.2067E+03   0.01350  -0.03375
     753.00   3.876795     0.2085E+03   0.01724  -0.04309
     755.00   3.877947     0.2094E+03   0.01908  -0.04771
     757.00   3.879096     0.2082E+03   0.01664  -0.04161
     759.00   3.880242     0.2038E+03   0.00735  -0.01837
     761.00   3.881385     0.1998E+03  -0.00122   0.00304
     763.00   3.882524     0.1956E+03  -0.01042   0.02606
     765.00   3.883662     0.1909E+03  -0.02113   0.05282
     767.00   3.884795     0.1824E+03  -0.04093   0.10233
     769.00   3.885926     0.1861E+03  -0.03220   0.08051
     771.00   3.887054     0.1827E+03  -0.04022   0.10055
     773.00   3.888180     0.1834E+03  -0.03858   0.09644
     775.00   3.889302     0.1818E+03  -0.04219   0.10547
     777.00   3.890421     0.1846E+03  -0.03567   0.08917
     779.00   3.891537     0.1848E+03  -0.03520   0.08801
     781.00   3.892651     0.1855E+03  -0.03360   0.08401
     783.00   3.893762     0.1850E+03  -0.03461   0.08654
     785.00   3.894870     0.1834E+03  -0.03843   0.09609
     787.00   3.895975     0.1863E+03  -0.03156   0.07890
     789.00   3.897077     0.1854E+03  -0.03376   0.08440
     791.00   3.898176     0.1815E+03  -0.04299   0.10748
     793.00   3.899273     0.1823E+03  -0.04107   0.10268
     795.00   3.900367     0.1820E+03  -0.04173   0.10433
     797.00   3.901458     0.1866E+03  -0.03107   0.07768
     799.00   3.902547     0.1866E+03  -0.03092   0.07730
     801.00   3.903632     0.1904E+03  -0.02219   0.05546
     803.00   3.904716     0.1911E+03  -0.02061   0.05152
     805.00   3.905796     0.1903E+03  -0.02244   0.05610
     807.00   3.906873     0.1925E+03  -0.01744   0.04360
     809.00   3.907948     0.1910E+03  -0.02087   0.05216
     811.00   3.909021     0.1920E+03  -0.01849   0.04624
     813.00   3.910090     0.1946E+03  -0.01277   0.03192
     815.00   3.911158     0.1952E+03  -0.01142   0.02856
     817.00   3.912222     0.1953E+03  -0.01118   0.02796
     819.00   3.913284     0.1917E+03  -0.01918   0.04794
     821.00   3.914343     0.1899E+03  -0.02339   0.05847
     823.00   3.915400     0.1903E+03  -0.02236   0.05590
     825.00   3.916454     0.1903E+03  -0.02233   0.05584
     827.00   3.917506     0.1913E+03  -0.02024   0.05060
     829.00   3.918555     0.1898E+03  -0.02366   0.05914
     831.00   3.919601     0.1860E+03  -0.03244   0.08111
     833.00   3.920645     0.1845E+03  -0.03583   0.08958
     835.00   3.921686     0.1848E+03  -0.03522   0.08806
     837.00   3.922725     0.1852E+03  -0.03414   0.08535
     839.00   3.923762     0.1808E+03  -0.04463   0.11157
     841.00   3.924796     0.1850E+03  -0.03476   0.08691
     843.00   3.925828     0.1806E+03  -0.04517   0.11292
     845.00   3.926857     0.1776E+03  -0.05254   0.13135
     847.00   3.927883     0.1763E+03  -0.05558   0.13895
     849.00   3.928908     0.1781E+03  -0.05109   0.12773
     851.00   3.929929     0.1714E+03  -0.06797   0.16992
     853.00   3.930949     0.1775E+03  -0.05273   0.13182
     855.00   3.931966     0.1680E+03  -0.07663   0.19156
     857.00   3.932981     0.1804E+03  -0.04559   0.11399
     859.00   3.933993     0.1787E+03  -0.04974   0.12434
     861.00   3.935003     0.1797E+03  -0.04738   0.11844
     863.00   3.936011     0.1818E+03  -0.04234   0.10585
     865.00   3.937016     0.1823E+03  -0.04103   0.10258
     867.00   3.938019     0.1701E+03  -0.07108   0.17769
     869.00   3.939020     0.1786E+03  -0.04996   0.12489
     871.00   3.940018     0.1823E+03  -0.04112   0.10279
     873.00   3.941014     0.1828E+03  -0.03991   0.09977
     875.00   3.942008     0.1810E+03  -0.04424   0.11059
     877.00   3.943000     0.1828E+03  -0.03988   0.09971
     879.00   3.943989     0.1835E+03  -0.03829   0.09572
     881.00   3.944976     0.1806E+03  -0.04507   0.11267
     883.00   3.945961     0.1818E+03  -0.04220   0.10550
     885.00   3.946943     0.1811E+03  -0.04385   0.10961
     887.00   3.947924     0.1768E+03  -0.05440   0.13601
     889.00   3.948902     0.1788E+03  -0.04957   0.12392
     891.00   3.949878     0.1796E+03  -0.04748   0.11871
     893.00   3.950851     0.1775E+03  -0.05279   0.13197
     895.00   3.951823     0.1773E+03  -0.05319   0.13298
     897.00   3.952792     0.1777E+03  -0.05221   0.13051
     899.00   3.953760     0.1778E+03  -0.05181   0.12954
     901.00   3.954725     0.1733E+03  -0.06319   0.15797
     903.00   3.955688     0.1778E+03  -0.05194   0.12984
     905.00   3.956649     0.1806E+03  -0.04522   0.11305
     907.00   3.957607     0.1796E+03  -0.04747   0.11868
     909.00   3.958564     0.1762E+03  -0.05580   0.13950
     911.00   3.959518     0.1776E+03  -0.05239   0.13096
     913.00   3.960471     0.1791E+03  -0.04887   0.12219
     915.00   3.961421     0.1784E+03  -0.05056   0.12641
     917.00   3.962369     0.1778E+03  -0.05194   0.12986
     919.00   3.963315     0.1784E+03  -0.05051   0.12629
     921.00   3.964260     0.1745E+03  -0.06007   0.15018
     923.00   3.965202     0.1731E+03  -0.06357   0.15892
     925.00   3.966142     0.1725E+03  -0.06518   0.16294
     927.00   3.967080     0.1734E+03  -0.06284   0.15711
     929.00   3.968016     0.1718E+03  -0.06679   0.16698
     931.00   3.968950     0.1724E+03  -0.06533   0.16331
     933.00   3.969882     0.1722E+03  -0.06590   0.16476
     935.00   3.970812     0.1717E+03  -0.06707   0.16768
     937.00   3.971740     0.1695E+03  -0.07274   0.18186
     939.00   3.972666     0.1714E+03  -0.06778   0.16945
     941.00   3.973590     0.1686E+03  -0.07491   0.18728
     943.00   3.974512     0.1710E+03  -0.06897   0.17242
     945.00   3.975432     0.1690E+03  -0.07386   0.18465
     947.00   3.976350     0.1711E+03  -0.06869   0.17174
     949.00   3.977266     0.1711E+03  -0.06873   0.17182
     951.00   3.978180     0.1695E+03  -0.07281   0.18202
     953.00   3.979093     0.1698E+03  -0.07189   0.17973
     955.00   3.980003     0.1669E+03  -0.07943   0.19857
     957.00   3.980912     0.1683E+03  -0.07590   0.18975
     959.00   3.981819     0.1698E+03  -0.07202   0.18006
     961.00   3.982723     0.1681E+03  -0.07640   0.19099
     963.00   3.983626     0.1684E+03  -0.07558   0.18895
     965.00   3.984527     0.1662E+03  -0.08119   0.20297
     967.00   3.985426     0.1663E+03  -0.08107   0.20268
     969.00   3.986324     0.1675E+03  -0.07774   0.19435
     971.00   3.987219     0.1663E+03  -0.08106   0.20266
     973.00   3.988113     0.1653E+03  -0.08351   0.20878
     975.00   3.989005     0.1648E+03  -0.08486   0.21215
     977.00   3.989895     0.1650E+03  -0.08440   0.21100
     979.00   3.990783     0.1633E+03  -0.08881   0.22202
     981.00   3.991669     0.1657E+03  -0.08245   0.20613
     983.00   3.992553     0.1648E+03  -0.08493   0.21231
     985.00   3.993436     0.1652E+03  -0.08384   0.20960
     987.00   3.994317     0.1641E+03  -0.08673   0.21682
     989.00   3.995196     0.1637E+03  -0.08792   0.21981
     991.00   3.996074     0.1633E+03  -0.08896   0.22239
     993.00   3.996949     0.1634E+03  -0.08854   0.22134
     995.00   3.997823     0.1634E+03  -0.08872   0.22181
     997.00   3.998695     0.1632E+03  -0.08910   0.22275
     999.00   3.999566     0.1627E+03  -0.09045   0.22613
    1003.00   4.001301     0.1614E+03  -0.09401   0.23502
    1008.00   4.003461     0.1597E+03  -0.09845   0.24612
    1013.00   4.005610     0.1601E+03  -0.09742   0.24355
    1018.00   4.007748     0.1584E+03  -0.10223   0.25557
    1023.00   4.009875     0.1581E+03  -0.10294   0.25736
    1028.00   4.011993     0.1578E+03  -0.10365   0.25913
    1033.00   4.014100     0.1557E+03  -0.10966   0.27414
    1038.00   4.016197     0.1547E+03  -0.11232   0.28081
    1043.00   4.018284     0.1549E+03  -0.11170   0.27925
    1048.00   4.020361     0.1536E+03  -0.11547   0.28867
    1053.00   4.022429     0.1533E+03  -0.11643   0.29108
    1058.00   4.024486     0.1515E+03  -0.12146   0.30365
    1063.00   4.026533     0.1507E+03  -0.12372   0.30931
    1068.00   4.028571     0.1487E+03  -0.12960   0.32400
    1073.00   4.030600     0.1487E+03  -0.12950   0.32375
    1078.00   4.032619     0.1474E+03  -0.13331   0.33328
    1083.00   4.034628     0.1455E+03  -0.13904   0.34759
    1088.00   4.036629     0.1448E+03  -0.14116   0.35289
    1093.00   4.038620     0.1442E+03  -0.14294   0.35735
    1098.00   4.040603     0.1424E+03  -0.14830   0.37075
    1103.00   4.042576     0.1421E+03  -0.14935   0.37337
    1108.00   4.044539     0.1411E+03  -0.15232   0.38081
    1113.00   4.046495     0.1404E+03  -0.15454   0.38634
    1118.00   4.048442     0.1393E+03  -0.15783   0.39458
    1123.00   4.050380     0.1392E+03  -0.15829   0.39572
    1128.00   4.052309     0.1378E+03  -0.16270   0.40675
    1133.00   4.054230     0.1375E+03  -0.16364   0.40910
    1138.00   4.056142     0.1366E+03  -0.16656   0.41641
    1143.00   4.058046     0.1354E+03  -0.17031   0.42577
    1148.00   4.059942     0.1363E+03  -0.16748   0.41870
    1153.00   4.061830     0.1359E+03  -0.16860   0.42150
    1158.00   4.063708     0.1346E+03  -0.17292   0.43230
    1163.00   4.065579     0.1330E+03  -0.17808   0.44519
    1168.00   4.067443     0.1329E+03  -0.17845   0.44612
    1173.00   4.069298     0.1333E+03  -0.17697   0.44242
    1178.00   4.071145     0.1314E+03  -0.18333   0.45832
    1183.00   4.072985     0.1305E+03  -0.18613   0.46533
    1188.00   4.074817     0.1291E+03  -0.19097   0.47743
    1193.00   4.076640     0.1305E+03  -0.18615   0.46537
    1198.00   4.078457     0.1271E+03  -0.19772   0.49430
    1203.00   4.080266     0.1286E+03  -0.19251   0.48129
    1208.00   4.082067     0.1275E+03  -0.19632   0.49080
    1213.00   4.083861     0.1275E+03  -0.19643   0.49108
    1218.00   4.085648     0.1275E+03  -0.19646   0.49116
    1223.00   4.087426     0.1267E+03  -0.19916   0.49790
    1228.00   4.089198     0.1258E+03  -0.20210   0.50525
    1233.00   4.090963     0.1252E+03  -0.20425   0.51063
    1238.00   4.092721     0.1247E+03  -0.20595   0.51487
    1243.00   4.094471     0.1237E+03  -0.20953   0.52383
    1248.00   4.096214     0.1235E+03  -0.21023   0.52559
    1253.00   4.097951     0.1225E+03  -0.21384   0.53459
    1258.00   4.099681     0.1221E+03  -0.21522   0.53804
    1263.00   4.101403     0.1215E+03  -0.21734   0.54334
    1268.00   4.103119     0.1206E+03  -0.22057   0.55143
    1273.00   4.104828     0.1205E+03  -0.22101   0.55253
    1278.00   4.106531     0.1203E+03  -0.22162   0.55406
    1283.00   4.108227     0.1170E+03  -0.23362   0.58405
    1288.00   4.109916     0.1184E+03  -0.22850   0.57124
    1293.00   4.111598     0.1174E+03  -0.23224   0.58060
    1298.00   4.113275     0.1180E+03  -0.23009   0.57524
    1303.00   4.114944     0.1168E+03  -0.23434   0.58586
    1308.00   4.116608     0.1169E+03  -0.23412   0.58530
    1313.00   4.118265     0.1152E+03  -0.24060   0.60150
    1318.00   4.119915     0.1147E+03  -0.24216   0.60540
    1323.00   4.121560     0.1148E+03  -0.24208   0.60520
    1328.00   4.123198     0.1132E+03  -0.24788   0.61969
    1333.00   4.124830     0.1134E+03  -0.24709   0.61773
    1338.00   4.126456     0.1126E+03  -0.25033   0.62582
    1343.00   4.128076     0.1127E+03  -0.24984   0.62461
    1348.00   4.129690     0.1120E+03  -0.25262   0.63155
    1353.00   4.131298     0.1115E+03  -0.25459   0.63649
    1358.00   4.132900     0.1101E+03  -0.26001   0.65002
    1363.00   4.134496     0.1097E+03  -0.26152   0.65381
    1368.00   4.136086     0.1101E+03  -0.26020   0.65051
    1373.00   4.137671     0.1103E+03  -0.25944   0.64859
    1378.00   4.139249     0.1099E+03  -0.26079   0.65197
    1383.00   4.140822     0.1098E+03  -0.26120   0.65301
    1388.00   4.142389     0.1088E+03  -0.26511   0.66278
    1393.00   4.143951     0.1046E+03  -0.28214   0.70535
    1398.00   4.145507     0.1049E+03  -0.28124   0.70310
    1403.00   4.147058     0.1038E+03  -0.28547   0.71368
    1408.00   4.148602     0.1044E+03  -0.28331   0.70828
    1413.00   4.150142     0.1034E+03  -0.28717   0.71792
    1418.00   4.151676     0.1039E+03  -0.28514   0.71286
    1423.00   4.153205     0.1029E+03  -0.28937   0.72344
    1428.00   4.154728     0.1019E+03  -0.29373   0.73431
    1433.00   4.156246     0.1033E+03  -0.28759   0.71898
    1438.00   4.157759     0.1037E+03  -0.28627   0.71569
    1443.00   4.159266     0.1018E+03  -0.29408   0.73521
    1448.00   4.160769     0.1033E+03  -0.28795   0.71987
    1453.00   4.162266     0.1023E+03  -0.29197   0.72993
    1457.00   4.163460     0.1027E+03  -0.29034   0.72585
    1462.00   4.164948     0.1003E+03  -0.30059   0.75146
    1468.00   4.166726     0.1005E+03  -0.29976   0.74940
    1473.00   4.168202     0.9962E+02  -0.30354   0.75884
    1478.00   4.169674     0.1002E+03  -0.30118   0.75295
    1483.00   4.171141     0.1004E+03  -0.30023   0.75058
    1488.00   4.172603     0.9962E+02  -0.30351   0.75878
    1493.00   4.174060     0.1013E+03  -0.29610   0.74025
    1498.00   4.175512     0.1007E+03  -0.29898   0.74744
    1503.00   4.176959     0.9967E+02  -0.30332   0.75831
    1508.00   4.178401     0.9966E+02  -0.30333   0.75832
    1513.00   4.179839     0.1011E+03  -0.29722   0.74306
    1518.00   4.181272     0.1012E+03  -0.29658   0.74146
    1523.00   4.182700     0.1010E+03  -0.29737   0.74343
    1528.00   4.184123     0.1015E+03  -0.29539   0.73848
    1533.00   4.185542     0.1011E+03  -0.29705   0.74264
    1538.00   4.186956     0.1001E+03  -0.30148   0.75370
    1543.00   4.188366     0.1006E+03  -0.29929   0.74821
    1548.00   4.189771     0.1007E+03  -0.29874   0.74685
    1553.00   4.191172     0.1001E+03  -0.30162   0.75404
    1558.00   4.192567     0.9780E+02  -0.31151   0.77879
    1563.00   4.193959     0.9900E+02  -0.30622   0.76554
    1568.00   4.195346     0.9842E+02  -0.30877   0.77192
    1573.00   4.196729     0.9958E+02  -0.30369   0.75923
    1578.00   4.198107     0.9346E+02  -0.33122   0.82806
    1583.00   4.199481     0.9588E+02  -0.32012   0.80030
    1588.00   4.200850     0.9536E+02  -0.32250   0.80624
    1593.00   4.202216     0.9757E+02  -0.31254   0.78135
    1598.00   4.203577     0.9855E+02  -0.30820   0.77050
    1605.00   4.205475     0.9572E+02  -0.32088   0.80220
    1615.00   4.208173     0.9682E+02  -0.31589   0.78972
    1625.00   4.210854     0.9436E+02  -0.32708   0.81769
    1635.00   4.213518     0.9600E+02  -0.31958   0.79895
    1645.00   4.216166     0.9253E+02  -0.33559   0.83898
    1655.00   4.218798     0.9358E+02  -0.33069   0.82671
    1665.00   4.221415     0.9084E+02  -0.34357   0.85892
    1675.00   4.224015     0.9048E+02  -0.34530   0.86326
    1685.00   4.226600     0.8922E+02  -0.35142   0.87854
    1695.00   4.229170     0.8824E+02  -0.35620   0.89051
    1705.00   4.231725     0.8630E+02  -0.36585   0.91462
    1715.00   4.234264     0.8483E+02  -0.37332   0.93330
    1725.00   4.236789     0.8305E+02  -0.38251   0.95627
    1735.00   4.239300     0.8065E+02  -0.39525   0.98812
    1745.00   4.241796     0.7981E+02  -0.39982   0.99956
    1755.00   4.244277     0.7859E+02  -0.40650   1.01625
    1765.00   4.246745     0.7705E+02  -0.41511   1.03776
    1775.00   4.249198     0.7539E+02  -0.42456   1.06140
    1785.00   4.251638     0.7438E+02  -0.43039   1.07597
    1795.00   4.254065     0.7286E+02  -0.43941   1.09851
    1805.00   4.256477     0.7131E+02  -0.44871   1.12178
    1815.00   4.258877     0.6990E+02  -0.45738   1.14346
    1825.00   4.261263     0.6890E+02  -0.46368   1.15919
    1835.00   4.263636     0.6781E+02  -0.47059   1.17647
    1845.00   4.265996     0.6643E+02  -0.47949   1.19872
    1855.00   4.268344     0.6573E+02  -0.48409   1.21022
    1865.00   4.270679     0.6422E+02  -0.49418   1.23546
    1875.00   4.273001     0.6269E+02  -0.50467   1.26167
    1885.00   4.275311     0.6224E+02  -0.50779   1.26948
    1895.00   4.277609     0.6016E+02  -0.52256   1.30639
    1905.00   4.279895     0.6012E+02  -0.52286   1.30714
    1915.00   4.282169     0.5883E+02  -0.53223   1.33058
    1925.00   4.284431     0.5781E+02  -0.53985   1.34963
    1935.00   4.286681     0.5626E+02  -0.55167   1.37918
    1945.00   4.288919     0.5482E+02  -0.56291   1.40728
    1955.00   4.291147     0.5447E+02  -0.56570   1.41424
    1965.00   4.293363     0.5346E+02  -0.57382   1.43456
    1975.00   4.295567     0.5217E+02  -0.58441   1.46101
    1985.00   4.297760     0.5144E+02  -0.59059   1.47647
    1995.00   4.299943     0.5069E+02  -0.59693   1.49231
    2005.00   4.302114     0.5023E+02  -0.60093   1.50232
    2015.00   4.304275     0.4948E+02  -0.60746   1.51866
    2025.00   4.306425     0.4830E+02  -0.61790   1.54475
    2035.00   4.308564     0.4754E+02  -0.62479   1.56197
    2045.00   4.310693     0.4719E+02  -0.62804   1.57011
    2055.00   4.312812     0.4636E+02  -0.63573   1.58932
    2065.00   4.314920     0.4551E+02  -0.64376   1.60939
    2075.00   4.317018     0.4490E+02  -0.64959   1.62397
    2085.00   4.319106     0.4419E+02  -0.65657   1.64142
    2095.00   4.321184     0.4334E+02  -0.66496   1.66240
    2105.00   4.323252     0.4296E+02  -0.66877   1.67192
    2115.00   4.325311     0.4220E+02  -0.67654   1.69135
    2125.00   4.327359     0.4154E+02  -0.68342   1.70855
    2135.00   4.329398     0.4107E+02  -0.68836   1.72091
    2145.00   4.331428     0.4041E+02  -0.69540   1.73851
    2155.00   4.333447     0.3976E+02  -0.70237   1.75592
    2165.00   4.335458     0.3890E+02  -0.71187   1.77968
    2175.00   4.337460     0.3841E+02  -0.71743   1.79359
    2185.00   4.339452     0.3790E+02  -0.72324   1.80811
    2195.00   4.341434     0.3740E+02  -0.72901   1.82251
    2205.00   4.343409     0.3652E+02  -0.73931   1.84827
    2215.00   4.345374     0.3632E+02  -0.74175   1.85438
    2225.00   4.347330     0.3549E+02  -0.75175   1.87938
    2235.00   4.349277     0.3502E+02  -0.75751   1.89378
    2245.00   4.351216     0.3451E+02  -0.76393   1.90983
    2255.00   4.353147     0.3405E+02  -0.76978   1.92444
    2265.00   4.355068     0.3337E+02  -0.77853   1.94633
    2275.00   4.356981     0.3307E+02  -0.78248   1.95621
    2285.00   4.358886     0.3240E+02  -0.79128   1.97821
    2295.00   4.360783     0.2685E+02  -0.87289   2.18223
    2305.00   4.362671     0.2923E+02  -0.83611   2.09026
    2315.00   4.364551     0.2906E+02  -0.83851   2.09627
    2325.00   4.366423     0.2490E+02  -0.90560   2.26400
    2335.00   4.368287     0.2690E+02  -0.87205   2.18013
    2345.00   4.370143     0.2534E+02  -0.89805   2.24514
    2355.00   4.371991     0.2316E+02  -0.93715   2.34288
    2365.00   4.373831     0.2499E+02  -0.90416   2.26040
    2375.00   4.375664     0.2373E+02  -0.92659   2.31647
    2385.00   4.377488     0.2190E+02  -0.96150   2.40376
    2395.00   4.379306     0.2333E+02  -0.93393   2.33483
    2405.00   4.381115     0.2264E+02  -0.94695   2.36737
    2415.00   4.382917     0.2085E+02  -0.98268   2.45669
    2425.00   4.384712     0.2201E+02  -0.95924   2.39811
    2435.00   4.386499     0.2129E+02  -0.97378   2.43446
    2445.00   4.388279     0.2106E+02  -0.97837   2.44591
    2455.00   4.390052     0.2050E+02  -0.99004   2.47511
    2465.00   4.391817     0.2064E+02  -0.98717   2.46792
    2475.00   4.393575     0.2010E+02  -0.99872   2.49679
    2485.00   4.395327     0.1809E+02  -1.04441   2.61102
    2495.00   4.397071     0.1773E+02  -1.05311   2.63279
    2505.00   4.398808     0.1800E+02  -1.04656   2.61641
    2515.00   4.400538     0.1713E+02  -1.06805   2.67014
    2525.00   4.402262     0.1757E+02  -1.05715   2.64286
    2535.00   4.403978     0.1761E+02  -1.05598   2.63996
    2545.00   4.405688     0.1741E+02  -1.06110   2.65274
    2555.00   4.407391     0.1736E+02  -1.06243   2.65608
    2565.00   4.409087     0.1746E+02  -1.05975   2.64936
    2575.00   4.410777     0.1756E+02  -1.05722   2.64305
    2585.00   4.412460     0.1707E+02  -1.06965   2.67413
    2595.00   4.414137     0.1715E+02  -1.06769   2.66921
    2605.00   4.415808     0.1714E+02  -1.06781   2.66953
    2615.00   4.417472     0.1686E+02  -1.07512   2.68779
    2625.00   4.419129     0.1658E+02  -1.08218   2.70544
    2635.00   4.420781     0.1660E+02  -1.08163   2.70407
    2645.00   4.422426     0.1646E+02  -1.08542   2.71355
    2655.00   4.424065     0.1624E+02  -1.09136   2.72841
    2665.00   4.425697     0.1597E+02  -1.09845   2.74613
    2675.00   4.427324     0.1610E+02  -1.09498   2.73746
    2685.00   4.428945     0.1592E+02  -1.09979   2.74948
    2695.00   4.430559     0.1563E+02  -1.10783   2.76957
    2705.00   4.432167     0.1560E+02  -1.10863   2.77158
    2715.00   4.433770     0.1545E+02  -1.11296   2.78239
    2725.00   4.435367     0.1535E+02  -1.11583   2.78959
    2735.00   4.436957     0.1508E+02  -1.12340   2.80850
    2745.00   4.438542     0.1503E+02  -1.12479   2.81197
    2755.00   4.440122     0.1492E+02  -1.12817   2.82042
    2765.00   4.441695     0.1473E+02  -1.13381   2.83451
    2775.00   4.443263     0.1453E+02  -1.13959   2.84899
    2785.00   4.444825     0.1446E+02  -1.14179   2.85448
    2795.00   4.446382     0.1437E+02  -1.14431   2.86076
    2805.00   4.447933     0.1421E+02  -1.14922   2.87304
    2815.00   4.449478     0.1402E+02  -1.15508   2.88769
    2825.00   4.451018     0.1391E+02  -1.15859   2.89648
    2835.00   4.452553     0.1381E+02  -1.16172   2.90429
    2845.00   4.454082     0.1364E+02  -1.16703   2.91756
    2855.00   4.455606     0.1349E+02  -1.17169   2.92923
    2865.00   4.457125     0.1336E+02  -1.17609   2.94022
    2875.00   4.458638     0.1321E+02  -1.18094   2.95235
    2885.00   4.460146     0.1309E+02  -1.18477   2.96192
    2895.00   4.461648     0.1296E+02  -1.18918   2.97294
    2905.00   4.463146     0.1282E+02  -1.19399   2.98497
    2915.00   4.464639     0.1270E+02  -1.19807   2.99516
    2925.00   4.466126     0.1250E+02  -1.20481   3.01203
    2935.00   4.467608     0.1244E+02  -1.20698   3.01744
    2945.00   4.469085     0.1228E+02  -1.21253   3.03132
    2955.00   4.470557     0.1216E+02  -1.21679   3.04197
    2965.00   4.472025     0.1206E+02  -1.22057   3.05143
    2975.00   4.473487     0.1193E+02  -1.22511   3.06277
    2985.00   4.474944     0.1179E+02  -1.23022   3.07555
    2995.00   4.476397     0.1166E+02  -1.23503   3.08758
    3005.00   4.477844     0.1154E+02  -1.23948   3.09870
    3015.00   4.479287     0.1145E+02  -1.24304   3.10761
    3025.00   4.480725     0.1132E+02  -1.24810   3.12024
    3035.00   4.482159     0.1117E+02  -1.25364   3.13411
    3045.00   4.483587     0.1111E+02  -1.25628   3.14070
    3055.00   4.485011     0.1099E+02  -1.26088   3.15221
    3065.00   4.486430     0.1088E+02  -1.26536   3.16341
    3075.00   4.487845     0.1079E+02  -1.26898   3.17245
    3085.00   4.489255     0.1065E+02  -1.27441   3.18603
    3095.00   4.490661     0.1056E+02  -1.27832   3.19581
    3105.00   4.492062     0.1047E+02  -1.28182   3.20454
    3115.00   4.493458     0.1032E+02  -1.28825   3.22063
    3125.00   4.494850     0.1025E+02  -1.29109   3.22772
    3135.00   4.496238     0.1015E+02  -1.29537   3.23842
    3145.00   4.497621     0.1005E+02  -1.29991   3.24978
    3155.00   4.499000     0.9929E+01  -1.30498   3.26245
    3165.00   4.500374     0.9824E+01  -1.30956   3.27389
    3175.00   4.501744     0.9740E+01  -1.31328   3.28321
    3185.00   4.503109     0.9639E+01  -1.31783   3.29459
    3195.00   4.504471     0.9548E+01  -1.32193   3.30483
    3210.00   4.506505     0.9392E+01  -1.32909   3.32272
    3230.00   4.509202     0.9195E+01  -1.33830   3.34575
    3250.00   4.511883     0.9005E+01  -1.34738   3.36846
    3270.00   4.514548     0.8813E+01  -1.35673   3.39182
    3290.00   4.517196     0.8614E+01  -1.36664   3.41661
    3310.00   4.519828     0.8446E+01  -1.37520   3.43801
    3330.00   4.522444     0.8262E+01  -1.38476   3.46191
    3350.00   4.525045     0.8105E+01  -1.39309   3.48273
    3370.00   4.527630     0.7930E+01  -1.40258   3.50645
    3390.00   4.530200     0.7756E+01  -1.41224   3.53061
    3410.00   4.532754     0.7587E+01  -1.42179   3.55447
    3430.00   4.535294     0.7447E+01  -1.42991   3.57478
    3450.00   4.537819     0.7296E+01  -1.43876   3.59689
    3470.00   4.540329     0.7142E+01  -1.44807   3.62018
    3490.00   4.542826     0.6995E+01  -1.45706   3.64265
    3510.00   4.545307     0.6856E+01  -1.46581   3.66452
    3530.00   4.547775     0.6705E+01  -1.47549   3.68872
    3550.00   4.550228     0.6576E+01  -1.48393   3.70983
    3570.00   4.552669     0.6438E+01  -1.49310   3.73275
    3590.00   4.555095     0.6309E+01  -1.50193   3.75482
    3610.00   4.557508     0.6190E+01  -1.51016   3.77540
    3630.00   4.559907     0.6065E+01  -1.51905   3.79764
    3650.00   4.562293     0.5932E+01  -1.52864   3.82161
    3670.00   4.564666     0.5811E+01  -1.53761   3.84404
    3690.00   4.567026     0.5681E+01  -1.54746   3.86865
    3710.00   4.569374     0.5563E+01  -1.55653   3.89133
    3730.00   4.571709     0.5469E+01  -1.56393   3.90983
    3750.00   4.574031     0.5339E+01  -1.57438   3.93596
    3770.00   4.576342     0.5259E+01  -1.58099   3.95246
    3790.00   4.578639     0.5153E+01  -1.58977   3.97442
    3810.00   4.580925     0.5058E+01  -1.59785   3.99463
    3830.00   4.583199     0.4967E+01  -1.60575   4.01437
    3850.00   4.585461     0.4874E+01  -1.61396   4.03490
    3870.00   4.587711     0.4768E+01  -1.62352   4.05880
    3890.00   4.589950     0.4683E+01  -1.63135   4.07838
    3910.00   4.592176     0.4598E+01  -1.63928   4.09820
    3930.00   4.594393     0.4512E+01  -1.64751   4.11878
    3950.00   4.596597     0.4415E+01  -1.65697   4.14242
    3970.00   4.598790     0.4337E+01  -1.66470   4.16176
    3990.00   4.600973     0.4239E+01  -1.67456   4.18640
    4010.00   4.603145     0.4171E+01  -1.68158   4.20394
    4030.00   4.605305     0.4102E+01  -1.68889   4.22222
    4050.00   4.607455     0.4017E+01  -1.69802   4.24504
    4070.00   4.609594     0.3950E+01  -1.70532   4.26331
    4090.00   4.611723     0.3879E+01  -1.71318   4.28295
    4110.00   4.613842     0.3812E+01  -1.72077   4.30192
    4130.00   4.615950     0.3748E+01  -1.72811   4.32027
    4150.00   4.618048     0.3679E+01  -1.73619   4.34048
    4170.00   4.620136     0.3614E+01  -1.74390   4.35976
    4190.00   4.622214     0.3548E+01  -1.75189   4.37973
    4210.00   4.624282     0.3481E+01  -1.76010   4.40025
    4230.00   4.626340     0.3435E+01  -1.76588   4.41469
    4250.00   4.628389     0.3370E+01  -1.77426   4.43565
    4270.00   4.630428     0.3318E+01  -1.78101   4.45253
    4290.00   4.632457     0.3159E+01  -1.80232   4.50581
    4310.00   4.634478     0.2999E+01  -1.82493   4.56233
    4330.00   4.636488     0.2992E+01  -1.82588   4.56470
    4350.00   4.638489     0.2857E+01  -1.84599   4.61497
    4370.00   4.640481     0.2777E+01  -1.85832   4.64579
    4390.00   4.642465     0.2718E+01  -1.86766   4.66915
    4410.00   4.644439     0.2606E+01  -1.88586   4.71464
    4430.00   4.646404     0.2568E+01  -1.89230   4.73075
    4450.00   4.648360     0.2520E+01  -1.90052   4.75129
    4470.00   4.650308     0.2428E+01  -1.91654   4.79135
    4490.00   4.652246     0.2427E+01  -1.91682   4.79206
    4510.00   4.654177     0.2364E+01  -1.92828   4.82071
    4530.00   4.656098     0.2300E+01  -1.94005   4.85012
    4550.00   4.658011     0.2290E+01  -1.94204   4.85511
    4570.00   4.659916     0.2262E+01  -1.94736   4.86841
    4590.00   4.661813     0.2188E+01  -1.96184   4.90459
    4610.00   4.663701     0.2193E+01  -1.96090   4.90224
    4630.00   4.665581     0.2149E+01  -1.96961   4.92401
    4650.00   4.667453     0.2127E+01  -1.97413   4.93532
    4670.00   4.669317     0.2114E+01  -1.97686   4.94216
    4690.00   4.671173     0.2073E+01  -1.98526   4.96314
    4710.00   4.673021     0.2037E+01  -1.99277   4.98192
    4730.00   4.674861     0.2040E+01  -1.99228   4.98070
    4750.00   4.676694     0.1994E+01  -2.00220   5.00551
    4770.00   4.678518     0.1968E+01  -2.00788   5.01969
    4790.00   4.680336     0.1949E+01  -2.01208   5.03020
    4810.00   4.682145     0.1901E+01  -2.02293   5.05733
    4830.00   4.683947     0.1906E+01  -2.02173   5.05432
    4850.00   4.685741     0.1871E+01  -2.02985   5.07463
    4870.00   4.687529     0.1834E+01  -2.03841   5.09602
    4890.00   4.689309     0.1810E+01  -2.04416   5.11041
    4910.00   4.691082     0.1788E+01  -2.04951   5.12378
    4930.00   4.692847     0.1760E+01  -2.05644   5.14111
    4950.00   4.694605     0.1730E+01  -2.06375   5.15938
    4970.00   4.696356     0.1718E+01  -2.06695   5.16736
    4990.00   4.698101     0.1693E+01  -2.07319   5.18298
    5010.00   4.699838     0.1672E+01  -2.07859   5.19647
    5030.00   4.701568     0.1650E+01  -2.08429   5.21073
    5050.00   4.703291     0.1615E+01  -2.09370   5.23426
    5070.00   4.705008     0.1602E+01  -2.09720   5.24300
    5090.00   4.706717     0.1583E+01  -2.10249   5.25623
    5110.00   4.708421     0.1554E+01  -2.11042   5.27605
    5130.00   4.710117     0.1543E+01  -2.11347   5.28368
    5150.00   4.711807     0.1516E+01  -2.12117   5.30291
    5170.00   4.713490     0.1510E+01  -2.12291   5.30728
    5190.00   4.715167     0.1482E+01  -2.13112   5.32779
    5210.00   4.716838     0.1466E+01  -2.13577   5.33944
    5230.00   4.718502     0.1441E+01  -2.14317   5.35793
    5250.00   4.720160     0.1430E+01  -2.14665   5.36661
    5270.00   4.721810     0.1422E+01  -2.14890   5.37226
    5290.00   4.723455     0.1390E+01  -2.15899   5.39746
    5310.00   4.725095     0.1372E+01  -2.16444   5.41109
    5330.00   4.726727     0.1360E+01  -2.16833   5.42081
    5350.00   4.728354     0.1344E+01  -2.17349   5.43372
    5370.00   4.729974     0.1329E+01  -2.17836   5.44590
    5390.00   4.731589     0.1314E+01  -2.18327   5.45817
    5410.00   4.733197     0.1298E+01  -2.18850   5.47126
    5430.00   4.734800     0.1275E+01  -2.19641   5.49102
    5450.00   4.736397     0.1268E+01  -2.19858   5.49644
    5470.00   4.737988     0.1248E+01  -2.20570   5.51424
    5490.00   4.739573     0.1235E+01  -2.21029   5.52571
    5510.00   4.741152     0.1218E+01  -2.21611   5.54027
    5530.00   4.742725     0.1219E+01  -2.21570   5.53925
    5550.00   4.744293     0.1188E+01  -2.22696   5.56741
    5570.00   4.745855     0.1185E+01  -2.22809   5.57021
    5590.00   4.747412     0.1165E+01  -2.23543   5.58856
    5610.00   4.748963     0.1156E+01  -2.23886   5.59714
    5630.00   4.750508     0.1136E+01  -2.24666   5.61664
    5650.00   4.752048     0.1129E+01  -2.24902   5.62255
    5670.00   4.753583     0.1116E+01  -2.25438   5.63594
    5690.00   4.755112     0.1096E+01  -2.26202   5.65504
    5710.00   4.756636     0.1091E+01  -2.26404   5.66011
    5730.00   4.758155     0.1077E+01  -2.26954   5.67385
    5750.00   4.759668     0.1064E+01  -2.27473   5.68683
    5770.00   4.761176     0.1050E+01  -2.28051   5.70127
    5790.00   4.762679     0.1043E+01  -2.28377   5.70941
    5810.00   4.764176     0.1027E+01  -2.29045   5.72612
    5830.00   4.765669     0.1016E+01  -2.29514   5.73784
    5850.00   4.767156     0.1004E+01  -2.29999   5.74997
    5870.00   4.768638     0.9890E+00  -2.30665   5.76663
    5890.00   4.770115     0.9786E+00  -2.31127   5.77818
    5910.00   4.771587     0.9679E+00  -2.31602   5.79005
    5930.00   4.773055     0.9578E+00  -2.32059   5.80149
    5950.00   4.774517     0.9445E+00  -2.32666   5.81664
    5970.00   4.775974     0.9363E+00  -2.33044   5.82611
    5990.00   4.777427     0.9253E+00  -2.33557   5.83893
    6010.00   4.778874     0.9146E+00  -2.34065   5.85164
    6030.00   4.780317     0.9038E+00  -2.34581   5.86451
    6050.00   4.781755     0.8909E+00  -2.35204   5.88010
    6070.00   4.783189     0.8810E+00  -2.35689   5.89224
    6090.00   4.784617     0.8706E+00  -2.36202   5.90506
    6110.00   4.786041     0.8594E+00  -2.36765   5.91914
    6130.00   4.787460     0.8511E+00  -2.37188   5.92971
    6150.00   4.788875     0.8420E+00  -2.37655   5.94138
    6170.00   4.790285     0.8336E+00  -2.38089   5.95223
    6190.00   4.791691     0.8237E+00  -2.38610   5.96525
    6210.00   4.793092     0.8150E+00  -2.39070   5.97674
    6230.00   4.794488     0.8041E+00  -2.39654   5.99135
    6250.00   4.795880     0.7936E+00  -2.40227   6.00568
    6270.00   4.797267     0.7846E+00  -2.40721   6.01803
    6290.00   4.798651     0.7763E+00  -2.41185   6.02962
    6310.00   4.800029     0.7670E+00  -2.41708   6.04269
    6330.00   4.801404     0.7601E+00  -2.42099   6.05246
    6350.00   4.802773     0.7504E+00  -2.42658   6.06646
    6370.00   4.804139     0.7436E+00  -2.43050   6.07626
    6390.00   4.805501     0.7334E+00  -2.43654   6.09134
    6420.00   4.807535     0.7216E+00  -2.44355   6.10887
    6460.00   4.810232     0.7049E+00  -2.45376   6.13440
    6500.00   4.812913     0.6893E+00  -2.46344   6.15861
    6540.00   4.815578     0.6739E+00  -2.47330   6.18325
    6580.00   4.818226     0.6595E+00  -2.48266   6.20666
    6620.00   4.820858     0.6445E+00  -2.49267   6.23167
    6660.00   4.823474     0.6304E+00  -2.50226   6.25566
    6700.00   4.826075     0.6167E+00  -2.51178   6.27944
    6740.00   4.828660     0.6029E+00  -2.52165   6.30412
    6780.00   4.831230     0.5898E+00  -2.53113   6.32784
    6820.00   4.833784     0.5769E+00  -2.54074   6.35184
    6860.00   4.836324     0.5648E+00  -2.55001   6.37501
    6900.00   4.838849     0.5524E+00  -2.55963   6.39908
    6940.00   4.841359     0.5406E+00  -2.56901   6.42252
    6980.00   4.843855     0.5291E+00  -2.57833   6.44582
    7020.00   4.846337     0.5176E+00  -2.58786   6.46964
    7060.00   4.848804     0.5069E+00  -2.59694   6.49235
    7100.00   4.851258     0.4962E+00  -2.60624   6.51560
    7140.00   4.853698     0.4858E+00  -2.61538   6.53844
    7180.00   4.856124     0.4756E+00  -2.62461   6.56153
    7220.00   4.858537     0.4658E+00  -2.63369   6.58424
    7260.00   4.860937     0.4561E+00  -2.64285   6.60711
    7300.00   4.863323     0.4467E+00  -2.65183   6.62957
    7340.00   4.865696     0.4375E+00  -2.66094   6.65234
    7380.00   4.868056     0.4286E+00  -2.66979   6.67448
    7420.00   4.870404     0.4197E+00  -2.67897   6.69743
    7460.00   4.872739     0.4110E+00  -2.68799   6.71997
    7500.00   4.875061     0.4029E+00  -2.69668   6.74170
    7540.00   4.877371     0.3948E+00  -2.70551   6.76378
    7580.00   4.879669     0.3872E+00  -2.71397   6.78492
    7620.00   4.881955     0.3795E+00  -2.72268   6.80670
    7660.00   4.884229     0.3720E+00  -2.73134   6.82834
    7700.00   4.886491     0.3646E+00  -2.74004   6.85010
    7740.00   4.888741     0.3575E+00  -2.74855   6.87138
    7780.00   4.890980     0.3506E+00  -2.75707   6.89267
    7820.00   4.893207     0.3438E+00  -2.76559   6.91398
    7860.00   4.895422     0.3372E+00  -2.77403   6.93509
    7900.00   4.897627     0.3307E+00  -2.78246   6.95616
    7940.00   4.899820     0.3243E+00  -2.79085   6.97713
    7980.00   4.902003     0.3182E+00  -2.79916   6.99790
    8020.00   4.904174     0.3121E+00  -2.80761   7.01904
    8060.00   4.906335     0.3062E+00  -2.81588   7.03969
    8100.00   4.908485     0.3005E+00  -2.82399   7.05998
    8140.00   4.910625     0.2948E+00  -2.83227   7.08069
    8180.00   4.912753     0.2894E+00  -2.84032   7.10080
    8220.00   4.914872     0.2841E+00  -2.84840   7.12101
    8260.00   4.916980     0.2788E+00  -2.85651   7.14128
    8300.00   4.919078     0.2737E+00  -2.86453   7.16132
    8340.00   4.921166     0.2687E+00  -2.87266   7.18164
    8380.00   4.923244     0.2638E+00  -2.88063   7.20158
    8420.00   4.925312     0.2591E+00  -2.88842   7.22105
    8460.00   4.927370     0.2544E+00  -2.89636   7.24091
    8500.00   4.929419     0.2498E+00  -2.90421   7.26052
    8540.00   4.931458     0.2454E+00  -2.91200   7.28001
    8580.00   4.933487     0.2410E+00  -2.91977   7.29943
    8620.00   4.935507     0.2368E+00  -2.92751   7.31877
    8660.00   4.937518     0.2326E+00  -2.93519   7.33797
    8700.00   4.939519     0.2286E+00  -2.94288   7.35719
    8740.00   4.941511     0.2246E+00  -2.95053   7.37632
    8780.00   4.943495     0.2206E+00  -2.95816   7.39541
    8820.00   4.945469     0.2168E+00  -2.96583   7.41456
    8860.00   4.947433     0.2131E+00  -2.97335   7.43338
    8900.00   4.949390     0.2094E+00  -2.98092   7.45229
    8940.00   4.951338     0.2059E+00  -2.98831   7.47078
    8980.00   4.953277     0.2023E+00  -2.99592   7.48979
    9020.00   4.955207     0.1989E+00  -3.00318   7.50796
    9060.00   4.957129     0.1956E+00  -3.01053   7.52632
    9100.00   4.959042     0.1922E+00  -3.01815   7.54537
    9140.00   4.960946     0.1890E+00  -3.02531   7.56328
    9180.00   4.962843     0.1859E+00  -3.03258   7.58146
    9220.00   4.964731     0.1829E+00  -3.03976   7.59939
    9260.00   4.966611     0.1798E+00  -3.04701   7.61753
    9300.00   4.968483     0.1769E+00  -3.05420   7.63551
    9340.00   4.970347     0.1740E+00  -3.06141   7.65353
    9380.00   4.972203     0.1711E+00  -3.06852   7.67131
    9420.00   4.974051     0.1684E+00  -3.07565   7.68912
    9460.00   4.975891     0.1656E+00  -3.08277   7.70693
    9500.00   4.977724     0.1629E+00  -3.08982   7.72455
    9540.00   4.979548     0.1603E+00  -3.09685   7.74212
    9580.00   4.981365     0.1578E+00  -3.10383   7.75958
    9620.00   4.983175     0.1553E+00  -3.11083   7.77707
    9660.00   4.984977     0.1528E+00  -3.11774   7.79435
    9700.00   4.986772     0.1504E+00  -3.12465   7.81164
    9740.00   4.988559     0.1479E+00  -3.13180   7.82950
    9780.00   4.990339     0.1457E+00  -3.13850   7.84625
    9820.00   4.992111     0.1434E+00  -3.14527   7.86318
    9860.00   4.993877     0.1412E+00  -3.15207   7.88018
    9900.00   4.995635     0.1390E+00  -3.15884   7.89709
    9940.00   4.997386     0.1368E+00  -3.16563   7.91409
    9980.00   4.999130     0.1347E+00  -3.17236   7.93090
   10020.00   5.000868     0.1327E+00  -3.17906   7.94766
   20000.00   5.301030     0.8939E-02  -4.35060  10.87650
   40000.00   5.602060     0.5749E-03  -5.54228  13.85571
   60000.00   5.778151     0.1143E-03  -6.24388  15.60969
   80000.00   5.903090     0.3621E-04  -6.74301  16.85753
  100000.00   6.000000     0.1483E-04  -7.13077  17.82693
  120000.00   6.079181     0.7144E-05  -7.44795  18.61987
  140000.00   6.146128     0.3851E-05  -7.71628  19.29071
  160000.00   6.204120     0.2254E-05  -7.94887  19.87217
