age =   14.0    [Fe/H] =   -0.25

wavele(nm) log wave(A)   Hlam       log(Hlam/Hlam(V))  Hlam(mag(V)) 
      89.50   2.951823     0.7105E-13 -15.32275  38.30687
      90.50   2.956649     0.1359E-12 -15.04106  37.60264
      91.50   2.961421     0.2133E-12 -14.84543  37.11357
      92.50   2.966142     0.3661E-10 -12.61069  31.52672
      93.50   2.970812     0.5066E-10 -12.46967  31.17418
      94.50   2.975432     0.7286E-10 -12.31185  30.77962
      95.50   2.980003     0.1092E-09 -12.13596  30.33990
      96.50   2.984527     0.1585E-09 -11.97430  29.93574
      97.50   2.989005     0.2093E-09 -11.85352  29.63381
      98.50   2.993436     0.2964E-09 -11.70252  29.25629
      99.50   2.997823     0.4035E-09 -11.56848  28.92119
     100.50   3.002166     0.5911E-09 -11.40265  28.50662
     101.50   3.006466     0.7972E-09 -11.27279  28.18198
     102.50   3.010724     0.9018E-09 -11.21923  28.04808
     103.50   3.014940     0.1489E-08 -11.00158  27.50394
     104.50   3.019116     0.2051E-08 -10.86236  27.15590
     105.50   3.023252     0.2596E-08 -10.76000  26.90001
     106.50   3.027350     0.3498E-08 -10.63049  26.57622
     107.50   3.031409     0.4699E-08 -10.50235  26.25588
     108.50   3.035430     0.6316E-08 -10.37388  25.93469
     109.50   3.039414     0.7898E-08 -10.27681  25.69204
     110.50   3.043362     0.4411E-07  -9.52982  23.82455
     111.50   3.047275     0.7921E-07  -9.27553  23.18883
     112.50   3.051152     0.1203E-06  -9.09406  22.73514
     113.50   3.054996     0.1835E-06  -8.91079  22.27697
     114.50   3.058805     0.2436E-06  -8.78770  21.96925
     115.50   3.062582     0.2816E-06  -8.72471  21.81177
     116.50   3.066326     0.3737E-06  -8.60181  21.50453
     117.50   3.070038     0.4763E-06  -8.49649  21.24123
     118.50   3.073718     0.4977E-06  -8.47737  21.19344
     119.50   3.077368     0.3815E-06  -8.59287  21.48217
     120.50   3.080987     0.3544E-06  -8.62490  21.56225
     121.50   3.084576     0.7397E-07  -9.30529  23.26323
     122.50   3.088136     0.4706E-06  -8.50172  21.25429
     123.50   3.091667     0.1153E-05  -8.11257  20.28144
     124.50   3.095169     0.1853E-05  -7.90644  19.76609
     125.50   3.098644     0.2431E-05  -7.78853  19.47132
     126.50   3.102091     0.2697E-05  -7.74348  19.35870
     127.50   3.105510     0.3451E-05  -7.63633  19.09084
     128.50   3.108903     0.4140E-05  -7.55730  18.89325
     129.50   3.112270     0.5020E-05  -7.47359  18.68398
     130.50   3.115611     0.5416E-05  -7.44065  18.60162
     131.50   3.118926     0.6825E-05  -7.34023  18.35058
     132.50   3.122216     0.7320E-05  -7.30982  18.27456
     133.50   3.125481     0.8165E-05  -7.26239  18.15597
     134.50   3.128722     0.9645E-05  -7.19003  17.97507
     135.50   3.131939     0.1111E-04  -7.12873  17.82181
     136.50   3.135133     0.1207E-04  -7.09253  17.73133
     137.50   3.138303     0.1302E-04  -7.05972  17.64930
     138.50   3.141450     0.1428E-04  -7.01950  17.54875
     139.50   3.144574     0.1616E-04  -6.96587  17.41467
     140.50   3.147676     0.1934E-04  -6.88798  17.21996
     141.50   3.150756     0.2199E-04  -6.83220  17.08051
     142.50   3.153815     0.2499E-04  -6.77651  16.94128
     143.50   3.156852     0.2937E-04  -6.70645  16.76612
     144.20   3.158965     0.3815E-04  -6.59281  16.48203
     144.70   3.160469     0.3413E-04  -6.64122  16.60305
     145.50   3.162863     0.4029E-04  -6.56914  16.42284
     146.50   3.165838     0.5053E-04  -6.47082  16.17704
     147.50   3.168792     0.5744E-04  -6.41511  16.03778
     148.50   3.171726     0.6184E-04  -6.38304  15.95759
     149.50   3.174641     0.8097E-04  -6.26602  15.66505
     150.50   3.177536     0.9800E-04  -6.18310  15.45775
     151.20   3.179552     0.7513E-04  -6.29852  15.74631
     151.70   3.180986     0.9489E-04  -6.19714  15.49284
     152.50   3.183270     0.2062E-03  -5.85997  14.64993
     153.50   3.186108     0.3237E-03  -5.66420  14.16049
     154.50   3.188928     0.2717E-03  -5.74022  14.35056
     155.50   3.191730     0.4250E-03  -5.54600  13.86499
     156.50   3.194514     0.4030E-03  -5.56905  13.92263
     157.50   3.197281     0.7052E-03  -5.32600  13.31501
     158.50   3.200029     0.8499E-03  -5.24497  13.11243
     159.50   3.202761     0.9889E-03  -5.17919  12.94797
     160.50   3.205475     0.1058E-02  -5.14986  12.87464
     161.50   3.208173     0.1187E-02  -5.09992  12.74979
     162.50   3.210853     0.1311E-02  -5.05689  12.64223
     163.50   3.213518     0.1545E-02  -4.98551  12.46377
     164.50   3.216166     0.2145E-02  -4.84290  12.10724
     165.50   3.218798     0.1401E-02  -5.02782  12.56956
     166.50   3.221414     0.2462E-02  -4.78309  11.95772
     167.20   3.223236     0.1777E-02  -4.92474  12.31186
     167.70   3.224533     0.6519E-02  -4.36012  10.90031
     168.50   3.226600     0.6990E-02  -4.32985  10.82463
     169.50   3.229170     0.8289E-02  -4.25581  10.63953
     170.50   3.231725     0.9469E-02  -4.19804  10.49509
     171.50   3.234264     0.1115E-01  -4.12716  10.31789
     172.50   3.236789     0.1390E-01  -4.03134  10.07835
     173.50   3.239300     0.1806E-01  -3.91769   9.79423
     174.50   3.241796     0.2359E-01  -3.80167   9.50417
     175.50   3.244277     0.3455E-01  -3.63587   9.08967
     176.50   3.246745     0.2786E-01  -3.72940   9.32350
     177.50   3.249198     0.3364E-01  -3.64748   9.11869
     178.50   3.251638     0.4493E-01  -3.52176   8.80440
     179.50   3.254065     0.6198E-01  -3.38212   8.45529
     180.50   3.256477     0.6379E-01  -3.36958   8.42394
     181.50   3.258877     0.5403E-01  -3.44171   8.60427
     182.50   3.261263     0.6893E-01  -3.33591   8.33977
     183.50   3.263636     0.7104E-01  -3.32285   8.30712
     184.50   3.265996     0.4270E-01  -3.54393   8.85982
     185.50   3.268344     0.8180E-01  -3.26161   8.15401
     186.50   3.270679     0.1062E+00  -3.14822   7.87055
     187.50   3.273001     0.1098E+00  -3.13363   7.83407
     188.50   3.275311     0.1176E+00  -3.10388   7.75971
     189.50   3.277609     0.1583E+00  -2.97487   7.43716
     190.50   3.279895     0.1492E+00  -3.00066   7.50164
     191.50   3.282169     0.1692E+00  -2.94605   7.36512
     192.50   3.284431     0.1464E+00  -3.00873   7.52183
     193.50   3.286681     0.8080E-01  -3.26693   8.16732
     194.50   3.288920     0.2106E+00  -2.85081   7.12701
     195.50   3.291147     0.2207E+00  -2.83046   7.07615
     196.70   3.293804     0.2991E+00  -2.69853   6.74632
     197.60   3.295787     0.2552E+00  -2.76744   6.91860
     198.40   3.297542     0.3274E+00  -2.65932   6.64829
     199.50   3.299943     0.3582E+00  -2.62019   6.55048
     200.50   3.302114     0.3315E+00  -2.65381   6.63452
     201.50   3.304275     0.3655E+00  -2.61149   6.52873
     202.50   3.306425     0.2622E+00  -2.75567   6.88917
     203.50   3.308564     0.4105E+00  -2.56105   6.40262
     204.50   3.310693     0.4832E+00  -2.49019   6.22547
     205.50   3.312812     0.4687E+00  -2.50340   6.25850
     206.50   3.314920     0.4539E+00  -2.51737   6.29341
     207.40   3.316809     0.5115E+00  -2.46553   6.16383
     207.80   3.317646     0.1428E+01  -2.01954   5.04885
     208.50   3.319106     0.1881E+01  -1.89996   4.74991
     209.50   3.321184     0.1690E+01  -1.94636   4.86590
     210.50   3.323252     0.1624E+01  -1.96365   4.90912
     211.50   3.325310     0.1964E+01  -1.88112   4.70279
     212.50   3.327359     0.1651E+01  -1.95658   4.89144
     213.50   3.329398     0.1617E+01  -1.96562   4.91406
     214.50   3.331427     0.2211E+01  -1.82979   4.57447
     215.50   3.333447     0.2110E+01  -1.85005   4.62512
     216.50   3.335458     0.1740E+01  -1.93375   4.83437
     217.50   3.337459     0.1752E+01  -1.93069   4.82671
     218.50   3.339452     0.2517E+01  -1.77343   4.43357
     219.50   3.341434     0.2416E+01  -1.79121   4.47802
     220.50   3.343409     0.2371E+01  -1.79942   4.49855
     221.50   3.345374     0.1698E+01  -1.94429   4.86072
     222.50   3.347330     0.2224E+01  -1.82715   4.56788
     223.50   3.349277     0.3176E+01  -1.67247   4.18117
     224.50   3.351216     0.3005E+01  -1.69655   4.24136
     225.50   3.353147     0.2097E+01  -1.85283   4.63206
     226.50   3.355068     0.1809E+01  -1.91687   4.79218
     227.50   3.356982     0.1972E+01  -1.87940   4.69849
     228.50   3.358886     0.3108E+01  -1.68179   4.20447
     229.50   3.360783     0.2402E+01  -1.79383   4.48457
     230.50   3.362671     0.3157E+01  -1.67501   4.18752
     231.50   3.364551     0.2572E+01  -1.76406   4.41015
     232.50   3.366423     0.2135E+01  -1.84491   4.61227
     233.50   3.368287     0.1769E+01  -1.92668   4.81669
     234.50   3.370143     0.1049E+01  -2.15342   5.38356
     235.50   3.371991     0.2458E+01  -1.78383   4.45958
     236.50   3.373831     0.1235E+01  -2.08282   5.20704
     237.50   3.375664     0.1748E+01  -1.93182   4.82956
     238.50   3.377488     0.8978E+00  -2.22117   5.55293
     239.50   3.379306     0.1213E+01  -2.09065   5.22663
     240.50   3.381115     0.1250E+01  -2.07727   5.19318
     241.50   3.382917     0.1552E+01  -1.98332   4.95830
     242.50   3.384712     0.3157E+01  -1.67507   4.18768
     243.50   3.386499     0.3195E+01  -1.66981   4.17452
     244.50   3.388279     0.3994E+01  -1.57297   3.93242
     245.50   3.390052     0.4322E+01  -1.53868   3.84671
     246.50   3.391817     0.3483E+01  -1.63241   4.08102
     247.50   3.393575     0.2933E+01  -1.70698   4.26746
     248.50   3.395326     0.1271E+01  -2.07027   5.17568
     249.50   3.397071     0.1955E+01  -1.88330   4.70825
     250.50   3.398808     0.3424E+01  -1.63980   4.09950
     251.30   3.400192     0.1165E+01  -2.10802   5.27005
     251.80   3.401056     0.7798E+00  -2.28237   5.70591
     252.50   3.402261     0.9590E+00  -2.19251   5.48129
     253.50   3.403978     0.2232E+01  -1.82572   4.56430
     254.50   3.405688     0.2368E+01  -1.79998   4.49994
     255.50   3.407391     0.5252E+01  -1.45403   3.63508
     256.50   3.409087     0.3602E+01  -1.61773   4.04433
     257.50   3.410777     0.4964E+01  -1.47854   3.69635
     258.50   3.412461     0.4238E+01  -1.54715   3.86788
     259.50   3.414137     0.3714E+01  -1.60452   4.01130
     260.50   3.415808     0.3064E+01  -1.68803   4.22007
     261.50   3.417472     0.2685E+01  -1.74537   4.36343
     262.50   3.419129     0.3973E+01  -1.57524   3.93809
     263.50   3.420781     0.8031E+01  -1.26958   3.17395
     264.50   3.422426     0.1105E+02  -1.13084   2.82709
     265.50   3.424065     0.1634E+02  -0.96112   2.40279
     266.50   3.425697     0.9946E+01  -1.17667   2.94167
     267.50   3.427324     0.1135E+02  -1.11934   2.79834
     268.50   3.428944     0.1363E+02  -1.03969   2.59923
     269.50   3.430559     0.9142E+01  -1.21328   3.03319
     270.50   3.432167     0.1179E+02  -1.10290   2.75725
     271.50   3.433770     0.7983E+01  -1.27216   3.18040
     272.50   3.435366     0.5699E+01  -1.41852   3.54631
     273.50   3.436957     0.7879E+01  -1.27787   3.19467
     274.50   3.438542     0.4164E+01  -1.55478   3.88695
     275.50   3.440122     0.6218E+01  -1.38068   3.45171
     276.50   3.441695     0.8653E+01  -1.23715   3.09288
     277.50   3.443263     0.9128E+01  -1.21395   3.03488
     278.50   3.444825     0.4831E+01  -1.49030   3.72574
     279.50   3.446382     0.1911E+01  -1.89305   4.73262
     280.50   3.447933     0.2400E+01  -1.79413   4.48531
     281.50   3.449478     0.7710E+01  -1.28727   3.21818
     282.50   3.451018     0.1181E+02  -1.10208   2.75520
     283.50   3.452553     0.1063E+02  -1.14777   2.86942
     284.50   3.454082     0.6557E+01  -1.35762   3.39404
     285.50   3.455606     0.3123E+01  -1.67970   4.19924
     286.50   3.457125     0.1001E+02  -1.17405   2.93513
     287.50   3.458638     0.1519E+02  -0.99285   2.48212
     288.50   3.460146     0.1384E+02  -1.03335   2.58337
     289.50   3.461648     0.1804E+02  -0.91804   2.29510
     291.00   3.463893     0.2567E+02  -0.76487   1.91218
     293.00   3.466868     0.2319E+02  -0.80900   2.02250
     295.00   3.469822     0.2201E+02  -0.83174   2.07934
     297.00   3.472756     0.2304E+02  -0.81183   2.02957
     299.00   3.475671     0.2414E+02  -0.79157   1.97893
     301.00   3.478566     0.2419E+02  -0.79064   1.97660
     303.00   3.481443     0.2634E+02  -0.75371   1.88427
     305.00   3.484300     0.2760E+02  -0.73341   1.83352
     307.00   3.487138     0.2840E+02  -0.72104   1.80260
     309.00   3.489959     0.2581E+02  -0.76263   1.90657
     311.00   3.492760     0.3080E+02  -0.68578   1.71445
     313.00   3.495544     0.2783E+02  -0.72977   1.82442
     315.00   3.498311     0.2756E+02  -0.73408   1.83520
     317.00   3.501059     0.3149E+02  -0.67615   1.69038
     319.00   3.503791     0.2726E+02  -0.73886   1.84714
     321.00   3.506505     0.3036E+02  -0.69200   1.73001
     323.00   3.509202     0.2602E+02  -0.75898   1.89744
     325.00   3.511883     0.3751E+02  -0.60022   1.50055
     327.00   3.514548     0.4389E+02  -0.53197   1.32992
     329.00   3.517196     0.4294E+02  -0.54144   1.35361
     331.00   3.519828     0.3947E+02  -0.57805   1.44513
     333.00   3.522444     0.4090E+02  -0.56267   1.40667
     335.00   3.525045     0.3945E+02  -0.57831   1.44579
     337.00   3.527630     0.2805E+02  -0.72647   1.81618
     339.00   3.530200     0.3333E+02  -0.65147   1.62869
     341.00   3.532754     0.3484E+02  -0.63226   1.58064
     343.00   3.535294     0.3806E+02  -0.59391   1.48478
     345.00   3.537819     0.4118E+02  -0.55963   1.39907
     347.00   3.540329     0.4310E+02  -0.53989   1.34973
     349.00   3.542825     0.4843E+02  -0.48918   1.22295
     351.00   3.545307     0.5168E+02  -0.46100   1.15250
     353.00   3.547775     0.4627E+02  -0.50907   1.27267
     355.00   3.550228     0.5299E+02  -0.45012   1.12529
     357.00   3.552668     0.3834E+02  -0.59069   1.47672
     359.00   3.555094     0.3934E+02  -0.57952   1.44879
     361.00   3.557507     0.4914E+02  -0.48292   1.20730
     363.00   3.559907     0.5056E+02  -0.47053   1.17632
     364.00   3.561101     0.5187E+02  -0.45939   1.14848
     365.00   3.562293     0.5606E+02  -0.42566   1.06416
     367.00   3.564666     0.6011E+02  -0.39540   0.98850
     369.00   3.567026     0.5399E+02  -0.44203   1.10506
     371.00   3.569374     0.5672E+02  -0.42056   1.05141
     373.00   3.571709     0.3675E+02  -0.60904   1.52259
     375.00   3.574031     0.4224E+02  -0.54859   1.37148
     377.00   3.576341     0.5584E+02  -0.42738   1.06845
     379.00   3.578639     0.5751E+02  -0.41459   1.03647
     381.00   3.580925     0.5407E+02  -0.44136   1.10340
     383.00   3.583199     0.2990E+02  -0.69862   1.74655
     385.00   3.585461     0.4238E+02  -0.54719   1.36796
     387.00   3.587711     0.4146E+02  -0.55666   1.39165
     389.00   3.589950     0.5192E+02  -0.45904   1.14759
     391.00   3.592177     0.6313E+02  -0.37413   0.93532
     393.00   3.594393     0.3028E+02  -0.69316   1.73289
     395.00   3.596597     0.5533E+02  -0.43138   1.07846
     397.00   3.598790     0.3798E+02  -0.59481   1.48702
     399.00   3.600973     0.8252E+02  -0.25775   0.64438
     401.00   3.603144     0.9073E+02  -0.21659   0.54147
     403.00   3.605305     0.8930E+02  -0.22348   0.55870
     405.00   3.607455     0.8579E+02  -0.24092   0.60231
     407.00   3.609594     0.8110E+02  -0.26529   0.66323
     409.00   3.611723     0.9990E+02  -0.17477   0.43693
     411.00   3.613842     0.9386E+02  -0.20187   0.50466
     413.00   3.615950     0.9186E+02  -0.21119   0.52799
     415.00   3.618048     0.8959E+02  -0.22208   0.55521
     417.00   3.620136     0.9150E+02  -0.21293   0.53233
     419.00   3.622214     0.8869E+02  -0.22646   0.56616
     421.00   3.624282     0.8949E+02  -0.22259   0.55647
     423.00   3.626340     0.8452E+02  -0.24737   0.61843
     425.00   3.628389     0.8946E+02  -0.22271   0.55679
     427.00   3.630428     0.8411E+02  -0.24948   0.62370
     429.00   3.632457     0.7825E+02  -0.28087   0.70216
     431.00   3.634477     0.6691E+02  -0.34886   0.87216
     433.00   3.636488     0.1006E+03  -0.17190   0.42974
     435.00   3.638489     0.9969E+02  -0.17568   0.43919
     437.00   3.640481     0.1077E+03  -0.14199   0.35497
     439.00   3.642465     0.9593E+02  -0.19237   0.48093
     441.00   3.644439     0.1028E+03  -0.16253   0.40633
     443.00   3.646404     0.1123E+03  -0.12409   0.31021
     445.00   3.648360     0.1128E+03  -0.12190   0.30476
     447.00   3.650307     0.1207E+03  -0.09251   0.23128
     449.00   3.652246     0.1243E+03  -0.07981   0.19952
     451.00   3.654176     0.1403E+03  -0.02724   0.06809
     453.00   3.656098     0.1237E+03  -0.08199   0.20498
     455.00   3.658011     0.1300E+03  -0.06040   0.15100
     457.00   3.659916     0.1403E+03  -0.02736   0.06841
     459.00   3.661813     0.1321E+03  -0.05360   0.13399
     461.00   3.663701     0.1366E+03  -0.03883   0.09709
     463.00   3.665581     0.1338E+03  -0.04778   0.11945
     465.00   3.667453     0.1354E+03  -0.04287   0.10718
     467.00   3.669317     0.1411E+03  -0.02470   0.06174
     469.00   3.671173     0.1387E+03  -0.03218   0.08044
     471.00   3.673021     0.1358E+03  -0.04150   0.10374
     473.00   3.674861     0.1398E+03  -0.02868   0.07169
     475.00   3.676694     0.1430E+03  -0.01888   0.04721
     477.00   3.678518     0.1398E+03  -0.02869   0.07173
     479.00   3.680336     0.1410E+03  -0.02519   0.06297
     481.00   3.682145     0.1418E+03  -0.02271   0.05676
     483.00   3.683947     0.1456E+03  -0.01112   0.02781
     485.00   3.685742     0.1400E+03  -0.02827   0.07068
     487.00   3.687529     0.1291E+03  -0.06325   0.15813
     489.00   3.689309     0.1422E+03  -0.02145   0.05363
     491.00   3.691082     0.1432E+03  -0.01837   0.04593
     493.00   3.692847     0.1408E+03  -0.02564   0.06409
     495.00   3.694605     0.1459E+03  -0.01019   0.02546
     497.00   3.696356     0.1414E+03  -0.02379   0.05948
     499.00   3.698101     0.1322E+03  -0.05303   0.13258
     501.00   3.699838     0.1252E+03  -0.07664   0.19161
     503.00   3.701568     0.1335E+03  -0.04887   0.12217
     505.00   3.703291     0.1332E+03  -0.04969   0.12423
     507.00   3.705008     0.1389E+03  -0.03167   0.07917
     509.00   3.706718     0.1322E+03  -0.05311   0.13276
     511.00   3.708421     0.1352E+03  -0.04351   0.10879
     513.00   3.710117     0.1316E+03  -0.05501   0.13753
     515.00   3.711807     0.1270E+03  -0.07059   0.17647
     517.00   3.713490     0.1147E+03  -0.11461   0.28653
     519.00   3.715167     0.1195E+03  -0.09692   0.24230
     521.00   3.716838     0.1294E+03  -0.06249   0.15623
     523.00   3.718502     0.1412E+03  -0.02463   0.06157
     525.00   3.720159     0.1472E+03  -0.00633   0.01582
     527.00   3.721811     0.1301E+03  -0.05998   0.14995
     529.00   3.723456     0.1500E+03   0.00183  -0.00457
     531.00   3.725095     0.1587E+03   0.02620  -0.06551
     533.00   3.726727     0.1410E+03  -0.02517   0.06294
     535.00   3.728354     0.1544E+03   0.01427  -0.03567
     537.00   3.729974     0.1528E+03   0.00977  -0.02443
     539.00   3.731589     0.1502E+03   0.00236  -0.00590
     541.00   3.733197     0.1479E+03  -0.00450   0.01124
     543.00   3.734800     0.1501E+03   0.00202  -0.00504
     545.00   3.736397     0.1528E+03   0.00971  -0.02429
     547.00   3.737987     0.1497E+03   0.00097  -0.00244
     549.00   3.739572     0.1515E+03   0.00614  -0.01535
     551.00   3.741152     0.1494E+03   0.00000   0.00000
     553.00   3.742725     0.1548E+03   0.01533  -0.03833
     555.00   3.744293     0.1574E+03   0.02274  -0.05686
     557.00   3.745855     0.1537E+03   0.01243  -0.03108
     559.00   3.747412     0.1501E+03   0.00195  -0.00488
     561.00   3.748963     0.1546E+03   0.01478  -0.03696
     563.00   3.750508     0.1545E+03   0.01458  -0.03646
     565.00   3.752048     0.1570E+03   0.02168  -0.05421
     567.00   3.753583     0.1535E+03   0.01188  -0.02969
     569.00   3.755112     0.1580E+03   0.02440  -0.06100
     571.00   3.756636     0.1533E+03   0.01134  -0.02835
     573.00   3.758155     0.1650E+03   0.04311  -0.10777
     575.00   3.759668     0.1605E+03   0.03119  -0.07797
     577.00   3.761176     0.1622E+03   0.03572  -0.08930
     579.00   3.762679     0.1570E+03   0.02144  -0.05361
     581.00   3.764176     0.1624E+03   0.03634  -0.09085
     583.00   3.765669     0.1656E+03   0.04472  -0.11179
     585.00   3.767156     0.1598E+03   0.02935  -0.07337
     587.00   3.768638     0.1591E+03   0.02723  -0.06807
     589.00   3.770115     0.1417E+03  -0.02293   0.05732
     591.00   3.771587     0.1562E+03   0.01923  -0.04807
     593.00   3.773055     0.1578E+03   0.02377  -0.05942
     595.00   3.774517     0.1584E+03   0.02554  -0.06386
     597.00   3.775974     0.1613E+03   0.03325  -0.08312
     599.00   3.777427     0.1596E+03   0.02876  -0.07190
     601.00   3.778874     0.1579E+03   0.02416  -0.06041
     603.00   3.780317     0.1617E+03   0.03433  -0.08583
     605.00   3.781755     0.1648E+03   0.04275  -0.10687
     607.00   3.783189     0.1642E+03   0.04095  -0.10237
     609.00   3.784617     0.1599E+03   0.02938  -0.07346
     611.00   3.786041     0.1606E+03   0.03154  -0.07886
     613.00   3.787461     0.1531E+03   0.01051  -0.02628
     615.00   3.788875     0.1566E+03   0.02057  -0.05143
     617.00   3.790285     0.1471E+03  -0.00674   0.01686
     619.00   3.791691     0.1547E+03   0.01508  -0.03771
     621.00   3.793092     0.1533E+03   0.01124  -0.02810
     623.00   3.794488     0.1491E+03  -0.00089   0.00222
     625.00   3.795880     0.1453E+03  -0.01197   0.02993
     627.00   3.797267     0.1521E+03   0.00789  -0.01972
     629.00   3.798651     0.1553E+03   0.01674  -0.04186
     631.00   3.800029     0.1528E+03   0.00974  -0.02434
     633.00   3.801404     0.1556E+03   0.01758  -0.04394
     635.00   3.802774     0.1572E+03   0.02200  -0.05500
     637.00   3.804139     0.1571E+03   0.02190  -0.05476
     639.00   3.805501     0.1593E+03   0.02784  -0.06959
     641.00   3.806858     0.1565E+03   0.02014  -0.05035
     643.00   3.808211     0.1580E+03   0.02442  -0.06106
     645.00   3.809560     0.1577E+03   0.02336  -0.05840
     647.00   3.810904     0.1574E+03   0.02269  -0.05673
     649.00   3.812245     0.1549E+03   0.01567  -0.03917
     651.00   3.813581     0.1601E+03   0.03001  -0.07502
     653.00   3.814913     0.1611E+03   0.03268  -0.08170
     655.00   3.816241     0.1570E+03   0.02159  -0.05397
     657.00   3.817565     0.1484E+03  -0.00302   0.00755
     659.00   3.818885     0.1568E+03   0.02102  -0.05256
     661.00   3.820201     0.1582E+03   0.02498  -0.06246
     663.00   3.821513     0.1563E+03   0.01974  -0.04936
     665.00   3.822822     0.1547E+03   0.01508  -0.03771
     667.00   3.824126     0.1510E+03   0.00454  -0.01134
     669.00   3.825426     0.1523E+03   0.00830  -0.02076
     671.00   3.826723     0.1464E+03  -0.00872   0.02179
     673.00   3.828015     0.1492E+03  -0.00069   0.00173
     675.00   3.829304     0.1468E+03  -0.00774   0.01935
     677.00   3.830589     0.1476E+03  -0.00516   0.01289
     679.00   3.831870     0.1466E+03  -0.00813   0.02033
     681.00   3.833147     0.1474E+03  -0.00593   0.01482
     683.00   3.834421     0.1495E+03   0.00030  -0.00075
     685.00   3.835690     0.1467E+03  -0.00802   0.02006
     687.00   3.836957     0.1490E+03  -0.00106   0.00265
     689.00   3.838219     0.1519E+03   0.00728  -0.01821
     691.00   3.839478     0.1530E+03   0.01032  -0.02580
     693.00   3.840733     0.1527E+03   0.00950  -0.02374
     695.00   3.841985     0.1530E+03   0.01044  -0.02610
     697.00   3.843233     0.1558E+03   0.01821  -0.04554
     699.00   3.844477     0.1560E+03   0.01890  -0.04724
     701.00   3.845718     0.1550E+03   0.01611  -0.04027
     703.00   3.846955     0.1562E+03   0.01933  -0.04833
     705.00   3.848189     0.1535E+03   0.01177  -0.02943
     707.00   3.849419     0.1467E+03  -0.00794   0.01986
     709.00   3.850646     0.1406E+03  -0.02631   0.06578
     711.00   3.851870     0.1365E+03  -0.03907   0.09767
     713.00   3.853090     0.1331E+03  -0.05007   0.12518
     715.00   3.854306     0.1328E+03  -0.05119   0.12797
     717.00   3.855519     0.1348E+03  -0.04452   0.11129
     719.00   3.856729     0.1327E+03  -0.05131   0.12829
     721.00   3.857935     0.1364E+03  -0.03956   0.09889
     723.00   3.859138     0.1404E+03  -0.02700   0.06750
     725.00   3.860338     0.1422E+03  -0.02152   0.05381
     727.00   3.861534     0.1441E+03  -0.01576   0.03939
     729.00   3.862728     0.1443E+03  -0.01497   0.03744
     731.00   3.863917     0.1499E+03   0.00151  -0.00377
     733.00   3.865104     0.1501E+03   0.00197  -0.00493
     735.00   3.866287     0.1531E+03   0.01064  -0.02660
     737.00   3.867467     0.1571E+03   0.02183  -0.05457
     739.00   3.868644     0.1545E+03   0.01458  -0.03645
     741.00   3.869818     0.1546E+03   0.01500  -0.03750
     743.00   3.870989     0.1581E+03   0.02461  -0.06153
     745.00   3.872156     0.1580E+03   0.02436  -0.06091
     747.00   3.873321     0.1605E+03   0.03107  -0.07767
     749.00   3.874482     0.1597E+03   0.02903  -0.07257
     751.00   3.875640     0.1606E+03   0.03135  -0.07838
     753.00   3.876795     0.1621E+03   0.03555  -0.08887
     755.00   3.877947     0.1629E+03   0.03758  -0.09396
     757.00   3.879096     0.1621E+03   0.03541  -0.08853
     759.00   3.880242     0.1582E+03   0.02486  -0.06214
     761.00   3.881385     0.1546E+03   0.01485  -0.03713
     763.00   3.882524     0.1507E+03   0.00387  -0.00968
     765.00   3.883662     0.1464E+03  -0.00887   0.02218
     767.00   3.884795     0.1394E+03  -0.03020   0.07550
     769.00   3.885926     0.1422E+03  -0.02139   0.05348
     771.00   3.887054     0.1396E+03  -0.02939   0.07347
     773.00   3.888180     0.1402E+03  -0.02747   0.06868
     775.00   3.889302     0.1391E+03  -0.03099   0.07747
     777.00   3.890421     0.1413E+03  -0.02428   0.06070
     779.00   3.891537     0.1415E+03  -0.02372   0.05929
     781.00   3.892651     0.1421E+03  -0.02167   0.05418
     783.00   3.893762     0.1420E+03  -0.02215   0.05537
     785.00   3.894870     0.1407E+03  -0.02596   0.06491
     787.00   3.895975     0.1432E+03  -0.01852   0.04631
     789.00   3.897077     0.1428E+03  -0.01961   0.04902
     791.00   3.898176     0.1397E+03  -0.02903   0.07258
     793.00   3.899273     0.1406E+03  -0.02642   0.06604
     795.00   3.900367     0.1406E+03  -0.02635   0.06587
     797.00   3.901458     0.1441E+03  -0.01570   0.03926
     799.00   3.902547     0.1442E+03  -0.01535   0.03837
     801.00   3.903632     0.1476E+03  -0.00522   0.01306
     803.00   3.904716     0.1483E+03  -0.00316   0.00789
     805.00   3.905796     0.1478E+03  -0.00475   0.01188
     807.00   3.906873     0.1500E+03   0.00164  -0.00409
     809.00   3.907948     0.1490E+03  -0.00113   0.00282
     811.00   3.909021     0.1500E+03   0.00161  -0.00404
     813.00   3.910090     0.1522E+03   0.00804  -0.02010
     815.00   3.911158     0.1529E+03   0.01000  -0.02501
     817.00   3.912222     0.1530E+03   0.01036  -0.02591
     819.00   3.913284     0.1502E+03   0.00237  -0.00591
     821.00   3.914343     0.1485E+03  -0.00275   0.00688
     823.00   3.915400     0.1487E+03  -0.00189   0.00472
     825.00   3.916454     0.1487E+03  -0.00201   0.00503
     827.00   3.917506     0.1493E+03  -0.00019   0.00049
     829.00   3.918555     0.1481E+03  -0.00377   0.00942
     831.00   3.919601     0.1452E+03  -0.01243   0.03108
     833.00   3.920645     0.1439E+03  -0.01616   0.04040
     835.00   3.921686     0.1441E+03  -0.01563   0.03907
     837.00   3.922725     0.1445E+03  -0.01454   0.03636
     839.00   3.923762     0.1410E+03  -0.02500   0.06250
     841.00   3.924796     0.1443E+03  -0.01508   0.03769
     843.00   3.925828     0.1408E+03  -0.02558   0.06396
     845.00   3.926857     0.1378E+03  -0.03517   0.08793
     847.00   3.927883     0.1368E+03  -0.03840   0.09601
     849.00   3.928908     0.1384E+03  -0.03331   0.08327
     851.00   3.929929     0.1332E+03  -0.04999   0.12497
     853.00   3.930949     0.1378E+03  -0.03498   0.08744
     855.00   3.931966     0.1310E+03  -0.05694   0.14234
     857.00   3.932981     0.1405E+03  -0.02669   0.06672
     859.00   3.933993     0.1393E+03  -0.03031   0.07578
     861.00   3.935003     0.1403E+03  -0.02724   0.06810
     863.00   3.936011     0.1420E+03  -0.02195   0.05487
     865.00   3.937016     0.1425E+03  -0.02041   0.05103
     867.00   3.938019     0.1334E+03  -0.04910   0.12276
     869.00   3.939020     0.1399E+03  -0.02841   0.07101
     871.00   3.940018     0.1429E+03  -0.01921   0.04802
     873.00   3.941014     0.1434E+03  -0.01774   0.04436
     875.00   3.942008     0.1422E+03  -0.02136   0.05339
     877.00   3.943000     0.1435E+03  -0.01744   0.04360
     879.00   3.943989     0.1443E+03  -0.01503   0.03756
     881.00   3.944976     0.1422E+03  -0.02151   0.05378
     883.00   3.945961     0.1431E+03  -0.01867   0.04668
     885.00   3.946943     0.1423E+03  -0.02103   0.05257
     887.00   3.947924     0.1388E+03  -0.03184   0.07960
     889.00   3.948902     0.1401E+03  -0.02803   0.07009
     891.00   3.949878     0.1408E+03  -0.02580   0.06449
     893.00   3.950851     0.1392E+03  -0.03060   0.07650
     895.00   3.951823     0.1392E+03  -0.03077   0.07693
     897.00   3.952792     0.1395E+03  -0.02974   0.07436
     899.00   3.953760     0.1397E+03  -0.02926   0.07314
     901.00   3.954725     0.1364E+03  -0.03952   0.09880
     903.00   3.955688     0.1400E+03  -0.02821   0.07053
     905.00   3.956649     0.1422E+03  -0.02135   0.05337
     907.00   3.957607     0.1417E+03  -0.02303   0.05756
     909.00   3.958564     0.1392E+03  -0.03059   0.07648
     911.00   3.959518     0.1403E+03  -0.02714   0.06786
     913.00   3.960471     0.1414E+03  -0.02381   0.05953
     915.00   3.961421     0.1409E+03  -0.02538   0.06345
     917.00   3.962369     0.1405E+03  -0.02664   0.06659
     919.00   3.963315     0.1410E+03  -0.02524   0.06310
     921.00   3.964260     0.1379E+03  -0.03489   0.08723
     923.00   3.965202     0.1369E+03  -0.03800   0.09501
     925.00   3.966142     0.1361E+03  -0.04044   0.10109
     927.00   3.967080     0.1369E+03  -0.03804   0.09509
     929.00   3.968016     0.1354E+03  -0.04268   0.10670
     931.00   3.968950     0.1358E+03  -0.04137   0.10342
     933.00   3.969882     0.1358E+03  -0.04149   0.10373
     935.00   3.970812     0.1354E+03  -0.04257   0.10641
     937.00   3.971740     0.1337E+03  -0.04827   0.12068
     939.00   3.972666     0.1353E+03  -0.04293   0.10732
     941.00   3.973590     0.1333E+03  -0.04939   0.12347
     943.00   3.974512     0.1350E+03  -0.04389   0.10973
     945.00   3.975432     0.1336E+03  -0.04838   0.12094
     947.00   3.976350     0.1353E+03  -0.04308   0.10769
     949.00   3.977266     0.1353E+03  -0.04304   0.10759
     951.00   3.978180     0.1339E+03  -0.04746   0.11864
     953.00   3.979093     0.1344E+03  -0.04606   0.11514
     955.00   3.980003     0.1324E+03  -0.05244   0.13111
     957.00   3.980912     0.1333E+03  -0.04949   0.12374
     959.00   3.981819     0.1344E+03  -0.04584   0.11460
     961.00   3.982723     0.1332E+03  -0.04999   0.12497
     963.00   3.983626     0.1335E+03  -0.04885   0.12211
     965.00   3.984527     0.1318E+03  -0.05438   0.13596
     967.00   3.985426     0.1319E+03  -0.05401   0.13503
     969.00   3.986324     0.1329E+03  -0.05083   0.12708
     971.00   3.987219     0.1318E+03  -0.05431   0.13578
     973.00   3.988113     0.1311E+03  -0.05682   0.14204
     975.00   3.989005     0.1307E+03  -0.05797   0.14492
     977.00   3.989895     0.1309E+03  -0.05745   0.14363
     979.00   3.990783     0.1296E+03  -0.06169   0.15421
     981.00   3.991669     0.1315E+03  -0.05534   0.13834
     983.00   3.992553     0.1308E+03  -0.05774   0.14436
     985.00   3.993436     0.1311E+03  -0.05670   0.14174
     987.00   3.994317     0.1303E+03  -0.05950   0.14876
     989.00   3.995196     0.1299E+03  -0.06073   0.15182
     991.00   3.996074     0.1296E+03  -0.06172   0.15431
     993.00   3.996949     0.1298E+03  -0.06121   0.15302
     995.00   3.997823     0.1298E+03  -0.06123   0.15307
     997.00   3.998695     0.1297E+03  -0.06155   0.15387
     999.00   3.999566     0.1293E+03  -0.06279   0.15696
    1003.00   4.001301     0.1284E+03  -0.06585   0.16461
    1008.00   4.003461     0.1272E+03  -0.06973   0.17433
    1013.00   4.005610     0.1275E+03  -0.06879   0.17198
    1018.00   4.007748     0.1262E+03  -0.07339   0.18348
    1023.00   4.009875     0.1260E+03  -0.07407   0.18517
    1028.00   4.011993     0.1258E+03  -0.07475   0.18687
    1033.00   4.014100     0.1241E+03  -0.08040   0.20100
    1038.00   4.016197     0.1234E+03  -0.08289   0.20722
    1043.00   4.018284     0.1236E+03  -0.08216   0.20541
    1048.00   4.020361     0.1227E+03  -0.08564   0.21411
    1053.00   4.022429     0.1223E+03  -0.08677   0.21692
    1058.00   4.024486     0.1209E+03  -0.09177   0.22942
    1063.00   4.026533     0.1203E+03  -0.09394   0.23484
    1068.00   4.028571     0.1189E+03  -0.09927   0.24818
    1073.00   4.030600     0.1189E+03  -0.09912   0.24781
    1078.00   4.032619     0.1179E+03  -0.10279   0.25697
    1083.00   4.034628     0.1164E+03  -0.10838   0.27095
    1088.00   4.036629     0.1158E+03  -0.11047   0.27617
    1093.00   4.038620     0.1154E+03  -0.11198   0.27994
    1098.00   4.040603     0.1140E+03  -0.11751   0.29379
    1103.00   4.042576     0.1136E+03  -0.11881   0.29702
    1108.00   4.044539     0.1128E+03  -0.12212   0.30529
    1113.00   4.046495     0.1123E+03  -0.12407   0.31017
    1118.00   4.048442     0.1115E+03  -0.12715   0.31788
    1123.00   4.050380     0.1114E+03  -0.12753   0.31882
    1128.00   4.052309     0.1104E+03  -0.13156   0.32890
    1133.00   4.054230     0.1102E+03  -0.13232   0.33081
    1138.00   4.056142     0.1094E+03  -0.13519   0.33799
    1143.00   4.058046     0.1085E+03  -0.13876   0.34690
    1148.00   4.059942     0.1092E+03  -0.13599   0.33997
    1153.00   4.061830     0.1090E+03  -0.13698   0.34245
    1158.00   4.063708     0.1080E+03  -0.14107   0.35268
    1163.00   4.065579     0.1067E+03  -0.14604   0.36511
    1168.00   4.067443     0.1067E+03  -0.14635   0.36587
    1173.00   4.069298     0.1070E+03  -0.14501   0.36252
    1178.00   4.071145     0.1055E+03  -0.15116   0.37791
    1183.00   4.072985     0.1048E+03  -0.15398   0.38494
    1188.00   4.074817     0.1037E+03  -0.15860   0.39651
    1193.00   4.076640     0.1048E+03  -0.15394   0.38485
    1198.00   4.078457     0.1022E+03  -0.16504   0.41261
    1203.00   4.080266     0.1034E+03  -0.15994   0.39986
    1208.00   4.082067     0.1025E+03  -0.16354   0.40885
    1213.00   4.083861     0.1025E+03  -0.16360   0.40899
    1218.00   4.085648     0.1025E+03  -0.16366   0.40916
    1223.00   4.087426     0.1019E+03  -0.16622   0.41556
    1228.00   4.089198     0.1012E+03  -0.16905   0.42261
    1233.00   4.090963     0.1007E+03  -0.17110   0.42775
    1238.00   4.092721     0.1004E+03  -0.17275   0.43186
    1243.00   4.094471     0.9952E+02  -0.17641   0.44102
    1248.00   4.096214     0.9939E+02  -0.17701   0.44252
    1253.00   4.097951     0.9861E+02  -0.18042   0.45106
    1258.00   4.099681     0.9830E+02  -0.18180   0.45449
    1263.00   4.101403     0.9784E+02  -0.18382   0.45956
    1268.00   4.103119     0.9715E+02  -0.18690   0.46724
    1273.00   4.104828     0.9705E+02  -0.18735   0.46837
    1278.00   4.106531     0.9693E+02  -0.18789   0.46972
    1283.00   4.108227     0.9450E+02  -0.19889   0.49724
    1288.00   4.109916     0.9548E+02  -0.19444   0.48610
    1293.00   4.111598     0.9469E+02  -0.19805   0.49512
    1298.00   4.113275     0.9513E+02  -0.19602   0.49006
    1303.00   4.114944     0.9425E+02  -0.20005   0.50014
    1308.00   4.116608     0.9426E+02  -0.20000   0.50000
    1313.00   4.118265     0.9287E+02  -0.20644   0.51610
    1318.00   4.119915     0.9254E+02  -0.20800   0.52000
    1323.00   4.121560     0.9254E+02  -0.20800   0.51999
    1328.00   4.123198     0.9135E+02  -0.21364   0.53411
    1333.00   4.124830     0.9145E+02  -0.21314   0.53285
    1338.00   4.126456     0.9080E+02  -0.21627   0.54067
    1343.00   4.128076     0.9085E+02  -0.21601   0.54003
    1348.00   4.129690     0.9027E+02  -0.21880   0.54699
    1353.00   4.131298     0.8985E+02  -0.22084   0.55210
    1358.00   4.132900     0.8876E+02  -0.22611   0.56526
    1363.00   4.134496     0.8847E+02  -0.22753   0.56883
    1368.00   4.136086     0.8879E+02  -0.22598   0.56496
    1373.00   4.137671     0.8899E+02  -0.22499   0.56247
    1378.00   4.139249     0.8877E+02  -0.22606   0.56515
    1383.00   4.140822     0.8870E+02  -0.22643   0.56608
    1388.00   4.142389     0.8791E+02  -0.23028   0.57571
    1393.00   4.143951     0.8393E+02  -0.25043   0.62608
    1398.00   4.145507     0.8416E+02  -0.24922   0.62304
    1403.00   4.147058     0.8343E+02  -0.25299   0.63248
    1408.00   4.148602     0.8386E+02  -0.25077   0.62693
    1413.00   4.150142     0.8319E+02  -0.25426   0.63565
    1418.00   4.151676     0.8359E+02  -0.25220   0.63050
    1423.00   4.153205     0.8286E+02  -0.25598   0.63994
    1428.00   4.154728     0.8210E+02  -0.26000   0.65000
    1433.00   4.156246     0.8327E+02  -0.25386   0.63465
    1438.00   4.157759     0.8355E+02  -0.25240   0.63100
    1443.00   4.159266     0.8219E+02  -0.25950   0.64876
    1448.00   4.160769     0.8332E+02  -0.25359   0.63397
    1453.00   4.162266     0.8263E+02  -0.25721   0.64302
    1457.00   4.163460     0.8293E+02  -0.25561   0.63903
    1462.00   4.164948     0.8069E+02  -0.26750   0.66876
    1468.00   4.166726     0.8091E+02  -0.26634   0.66585
    1473.00   4.168202     0.8032E+02  -0.26953   0.67383
    1478.00   4.169674     0.8079E+02  -0.26699   0.66749
    1483.00   4.171141     0.8102E+02  -0.26573   0.66433
    1488.00   4.172603     0.8048E+02  -0.26867   0.67168
    1493.00   4.174060     0.8187E+02  -0.26122   0.65306
    1498.00   4.175512     0.8142E+02  -0.26360   0.65900
    1503.00   4.176959     0.8061E+02  -0.26793   0.66981
    1508.00   4.178401     0.8073E+02  -0.26729   0.66823
    1513.00   4.179839     0.8189E+02  -0.26111   0.65279
    1518.00   4.181272     0.8204E+02  -0.26030   0.65076
    1523.00   4.182700     0.8195E+02  -0.26079   0.65198
    1528.00   4.184123     0.8234E+02  -0.25873   0.64682
    1533.00   4.185542     0.8209E+02  -0.26006   0.65015
    1538.00   4.186956     0.8107E+02  -0.26549   0.66373
    1543.00   4.188366     0.8157E+02  -0.26283   0.65706
    1548.00   4.189771     0.8171E+02  -0.26206   0.65516
    1553.00   4.191172     0.8125E+02  -0.26449   0.66122
    1558.00   4.192567     0.7941E+02  -0.27447   0.68618
    1563.00   4.193959     0.8033E+02  -0.26948   0.67371
    1568.00   4.195346     0.8002E+02  -0.27116   0.67789
    1573.00   4.196729     0.8098E+02  -0.26596   0.66489
    1578.00   4.198107     0.7583E+02  -0.29450   0.73626
    1583.00   4.199481     0.7789E+02  -0.28287   0.70717
    1588.00   4.200850     0.7770E+02  -0.28393   0.70981
    1593.00   4.202216     0.7949E+02  -0.27400   0.68500
    1598.00   4.203577     0.8035E+02  -0.26933   0.67332
    1605.00   4.205475     0.7788E+02  -0.28290   0.70725
    1615.00   4.208173     0.7900E+02  -0.27669   0.69174
    1625.00   4.210854     0.7680E+02  -0.28898   0.72246
    1635.00   4.213518     0.7833E+02  -0.28039   0.70098
    1645.00   4.216166     0.7553E+02  -0.29621   0.74053
    1655.00   4.218798     0.7641E+02  -0.29118   0.72795
    1665.00   4.221415     0.7416E+02  -0.30415   0.76036
    1675.00   4.224015     0.7397E+02  -0.30528   0.76320
    1685.00   4.226600     0.7310E+02  -0.31042   0.77606
    1695.00   4.229170     0.7213E+02  -0.31623   0.79057
    1705.00   4.231725     0.7064E+02  -0.32530   0.81324
    1715.00   4.234264     0.6935E+02  -0.33328   0.83320
    1725.00   4.236789     0.6795E+02  -0.34214   0.85534
    1735.00   4.239300     0.6600E+02  -0.35478   0.88695
    1745.00   4.241796     0.6522E+02  -0.35993   0.89982
    1755.00   4.244277     0.6423E+02  -0.36663   0.91658
    1765.00   4.246745     0.6291E+02  -0.37559   0.93897
    1775.00   4.249198     0.6155E+02  -0.38511   0.96278
    1785.00   4.251638     0.6069E+02  -0.39123   0.97807
    1795.00   4.254065     0.5942E+02  -0.40038   1.00096
    1805.00   4.256477     0.5817E+02  -0.40962   1.02406
    1815.00   4.258877     0.5706E+02  -0.41803   1.04507
    1825.00   4.261263     0.5624E+02  -0.42432   1.06079
    1835.00   4.263636     0.5537E+02  -0.43109   1.07772
    1845.00   4.265996     0.5427E+02  -0.43978   1.09945
    1855.00   4.268344     0.5370E+02  -0.44433   1.11084
    1865.00   4.270679     0.5251E+02  -0.45409   1.13523
    1875.00   4.273001     0.5130E+02  -0.46420   1.16050
    1885.00   4.275311     0.5088E+02  -0.46780   1.16951
    1895.00   4.277609     0.4923E+02  -0.48215   1.20537
    1905.00   4.279895     0.4912E+02  -0.48307   1.20768
    1915.00   4.282169     0.4808E+02  -0.49239   1.23098
    1925.00   4.284431     0.4723E+02  -0.50011   1.25027
    1935.00   4.286681     0.4597E+02  -0.51184   1.27959
    1945.00   4.288919     0.4482E+02  -0.52282   1.30706
    1955.00   4.291147     0.4448E+02  -0.52613   1.31532
    1965.00   4.293363     0.4366E+02  -0.53420   1.33551
    1975.00   4.295567     0.4260E+02  -0.54497   1.36243
    1985.00   4.297760     0.4199E+02  -0.55117   1.37793
    1995.00   4.299943     0.4140E+02  -0.55735   1.39338
    2005.00   4.302114     0.4102E+02  -0.56135   1.40338
    2015.00   4.304275     0.4041E+02  -0.56783   1.41956
    2025.00   4.306425     0.3949E+02  -0.57785   1.44463
    2035.00   4.308564     0.3889E+02  -0.58453   1.46131
    2045.00   4.310693     0.3859E+02  -0.58789   1.46973
    2055.00   4.312812     0.3793E+02  -0.59531   1.48827
    2065.00   4.314920     0.3726E+02  -0.60307   1.50767
    2075.00   4.317018     0.3678E+02  -0.60876   1.52191
    2085.00   4.319106     0.3621E+02  -0.61552   1.53879
    2095.00   4.321184     0.3554E+02  -0.62364   1.55911
    2105.00   4.323252     0.3522E+02  -0.62749   1.56873
    2115.00   4.325311     0.3462E+02  -0.63504   1.58760
    2125.00   4.327359     0.3409E+02  -0.64175   1.60437
    2135.00   4.329398     0.3370E+02  -0.64674   1.61686
    2145.00   4.331428     0.3317E+02  -0.65363   1.63407
    2155.00   4.333447     0.3265E+02  -0.66043   1.65108
    2165.00   4.335458     0.3198E+02  -0.66945   1.67364
    2175.00   4.337460     0.3156E+02  -0.67514   1.68786
    2185.00   4.339452     0.3115E+02  -0.68092   1.70231
    2195.00   4.341434     0.3074E+02  -0.68668   1.71669
    2205.00   4.343409     0.3003E+02  -0.69678   1.74196
    2215.00   4.345374     0.2985E+02  -0.69935   1.74837
    2225.00   4.347330     0.2919E+02  -0.70912   1.77279
    2235.00   4.349277     0.2880E+02  -0.71488   1.78721
    2245.00   4.351216     0.2838E+02  -0.72130   1.80325
    2255.00   4.353147     0.2800E+02  -0.72716   1.81790
    2265.00   4.355068     0.2745E+02  -0.73580   1.83950
    2275.00   4.356981     0.2719E+02  -0.73990   1.84975
    2285.00   4.358886     0.2666E+02  -0.74855   1.87137
    2295.00   4.360783     0.2199E+02  -0.83211   2.08027
    2305.00   4.362671     0.2399E+02  -0.79423   1.98558
    2315.00   4.364551     0.2388E+02  -0.79631   1.99077
    2325.00   4.366423     0.2042E+02  -0.86430   2.16074
    2335.00   4.368287     0.2208E+02  -0.83024   2.07560
    2345.00   4.370143     0.2071E+02  -0.85809   2.14524
    2355.00   4.371991     0.1901E+02  -0.89541   2.23854
    2365.00   4.373831     0.2049E+02  -0.86272   2.15680
    2375.00   4.375664     0.1941E+02  -0.88629   2.21572
    2385.00   4.377488     0.1796E+02  -0.92000   2.30000
    2395.00   4.379306     0.1912E+02  -0.89284   2.23209
    2405.00   4.381115     0.1851E+02  -0.90692   2.26731
    2415.00   4.382917     0.1707E+02  -0.94203   2.35507
    2425.00   4.384712     0.1800E+02  -0.91894   2.29736
    2435.00   4.386499     0.1736E+02  -0.93467   2.33668
    2445.00   4.388279     0.1723E+02  -0.93795   2.34488
    2455.00   4.390052     0.1674E+02  -0.95069   2.37672
    2465.00   4.391817     0.1680E+02  -0.94902   2.37256
    2475.00   4.393575     0.1636E+02  -0.96053   2.40133
    2485.00   4.395327     0.1466E+02  -1.00817   2.52042
    2495.00   4.397071     0.1429E+02  -1.01934   2.54836
    2505.00   4.398808     0.1449E+02  -1.01335   2.53338
    2515.00   4.400538     0.1383E+02  -1.03358   2.58395
    2525.00   4.402262     0.1415E+02  -1.02346   2.55865
    2535.00   4.403978     0.1419E+02  -1.02237   2.55594
    2545.00   4.405688     0.1403E+02  -1.02718   2.56796
    2555.00   4.407391     0.1400E+02  -1.02812   2.57031
    2565.00   4.409087     0.1409E+02  -1.02535   2.56336
    2575.00   4.410777     0.1418E+02  -1.02269   2.55672
    2585.00   4.412460     0.1382E+02  -1.03388   2.58470
    2595.00   4.414137     0.1387E+02  -1.03223   2.58057
    2605.00   4.415808     0.1386E+02  -1.03260   2.58149
    2615.00   4.417472     0.1364E+02  -1.03946   2.59865
    2625.00   4.419129     0.1343E+02  -1.04618   2.61545
    2635.00   4.420781     0.1344E+02  -1.04607   2.61517
    2645.00   4.422426     0.1332E+02  -1.04984   2.62460
    2655.00   4.424065     0.1315E+02  -1.05547   2.63868
    2665.00   4.425697     0.1294E+02  -1.06233   2.65582
    2675.00   4.427324     0.1303E+02  -1.05925   2.64813
    2685.00   4.428945     0.1289E+02  -1.06397   2.65993
    2695.00   4.430559     0.1267E+02  -1.07154   2.67884
    2705.00   4.432167     0.1264E+02  -1.07261   2.68153
    2715.00   4.433770     0.1252E+02  -1.07682   2.69204
    2725.00   4.435367     0.1243E+02  -1.07977   2.69942
    2735.00   4.436957     0.1223E+02  -1.08685   2.71713
    2745.00   4.438542     0.1219E+02  -1.08844   2.72110
    2755.00   4.440122     0.1209E+02  -1.09176   2.72940
    2765.00   4.441695     0.1194E+02  -1.09724   2.74311
    2775.00   4.443263     0.1179E+02  -1.10277   2.75693
    2785.00   4.444825     0.1173E+02  -1.10511   2.76277
    2795.00   4.446382     0.1166E+02  -1.10767   2.76918
    2805.00   4.447933     0.1153E+02  -1.11246   2.78116
    2815.00   4.449478     0.1138E+02  -1.11809   2.79523
    2825.00   4.451018     0.1129E+02  -1.12164   2.80410
    2835.00   4.452553     0.1121E+02  -1.12481   2.81202
    2845.00   4.454082     0.1108E+02  -1.12998   2.82496
    2855.00   4.455606     0.1096E+02  -1.13454   2.83635
    2865.00   4.457125     0.1085E+02  -1.13885   2.84714
    2875.00   4.458638     0.1074E+02  -1.14353   2.85882
    2885.00   4.460146     0.1064E+02  -1.14742   2.86856
    2895.00   4.461648     0.1053E+02  -1.15176   2.87941
    2905.00   4.463146     0.1042E+02  -1.15648   2.89121
    2915.00   4.464639     0.1032E+02  -1.16053   2.90132
    2925.00   4.466126     0.1017E+02  -1.16709   2.91773
    2935.00   4.467608     0.1012E+02  -1.16933   2.92331
    2945.00   4.469085     0.9992E+01  -1.17468   2.93671
    2955.00   4.470557     0.9896E+01  -1.17887   2.94719
    2965.00   4.472025     0.9810E+01  -1.18266   2.95664
    2975.00   4.473487     0.9710E+01  -1.18711   2.96778
    2985.00   4.474944     0.9599E+01  -1.19210   2.98025
    2995.00   4.476397     0.9495E+01  -1.19683   2.99206
    3005.00   4.477844     0.9402E+01  -1.20113   3.00282
    3015.00   4.479287     0.9327E+01  -1.20458   3.01145
    3025.00   4.480725     0.9224E+01  -1.20941   3.02352
    3035.00   4.482159     0.9115E+01  -1.21457   3.03643
    3045.00   4.483587     0.9060E+01  -1.21723   3.04307
    3055.00   4.485011     0.8967E+01  -1.22167   3.05418
    3065.00   4.486430     0.8879E+01  -1.22598   3.06495
    3075.00   4.487845     0.8808E+01  -1.22947   3.07367
    3085.00   4.489255     0.8704E+01  -1.23463   3.08659
    3095.00   4.490661     0.8629E+01  -1.23836   3.09589
    3105.00   4.492062     0.8562E+01  -1.24176   3.10441
    3115.00   4.493458     0.8441E+01  -1.24792   3.11980
    3125.00   4.494850     0.8388E+01  -1.25068   3.12670
    3135.00   4.496238     0.8308E+01  -1.25483   3.13707
    3145.00   4.497621     0.8225E+01  -1.25921   3.14802
    3155.00   4.499000     0.8133E+01  -1.26409   3.16022
    3165.00   4.500374     0.8051E+01  -1.26851   3.17128
    3175.00   4.501744     0.7983E+01  -1.27215   3.18037
    3185.00   4.503109     0.7903E+01  -1.27653   3.19132
    3195.00   4.504471     0.7831E+01  -1.28050   3.20126
    3210.00   4.506505     0.7708E+01  -1.28741   3.21852
    3230.00   4.509202     0.7551E+01  -1.29634   3.24085
    3250.00   4.511883     0.7399E+01  -1.30515   3.26288
    3270.00   4.514548     0.7246E+01  -1.31425   3.28564
    3290.00   4.517196     0.7087E+01  -1.32386   3.30965
    3310.00   4.519828     0.6951E+01  -1.33229   3.33073
    3330.00   4.522444     0.6802E+01  -1.34167   3.35418
    3350.00   4.525045     0.6675E+01  -1.34990   3.37475
    3370.00   4.527630     0.6533E+01  -1.35920   3.39799
    3390.00   4.530200     0.6392E+01  -1.36871   3.42179
    3410.00   4.532754     0.6255E+01  -1.37813   3.44532
    3430.00   4.535294     0.6139E+01  -1.38621   3.46552
    3450.00   4.537819     0.6017E+01  -1.39499   3.48747
    3470.00   4.540329     0.5890E+01  -1.40420   3.51050
    3490.00   4.542826     0.5771E+01  -1.41311   3.53277
    3510.00   4.545307     0.5656E+01  -1.42180   3.55450
    3530.00   4.547775     0.5533E+01  -1.43134   3.57836
    3550.00   4.550228     0.5427E+01  -1.43977   3.59943
    3570.00   4.552669     0.5315E+01  -1.44883   3.62208
    3590.00   4.555095     0.5209E+01  -1.45755   3.64389
    3610.00   4.557508     0.5112E+01  -1.46577   3.66442
    3630.00   4.559907     0.5009E+01  -1.47462   3.68654
    3650.00   4.562293     0.4901E+01  -1.48407   3.71019
    3670.00   4.564666     0.4801E+01  -1.49299   3.73248
    3690.00   4.567026     0.4695E+01  -1.50268   3.75670
    3710.00   4.569374     0.4599E+01  -1.51167   3.77918
    3730.00   4.571709     0.4521E+01  -1.51912   3.79780
    3750.00   4.574031     0.4416E+01  -1.52932   3.82330
    3770.00   4.576342     0.4347E+01  -1.53614   3.84036
    3790.00   4.578639     0.4260E+01  -1.54488   3.86221
    3810.00   4.580925     0.4182E+01  -1.55300   3.88250
    3830.00   4.583199     0.4106E+01  -1.56092   3.90230
    3850.00   4.585461     0.4029E+01  -1.56914   3.92286
    3870.00   4.587711     0.3942E+01  -1.57860   3.94651
    3890.00   4.589950     0.3872E+01  -1.58644   3.96610
    3910.00   4.592176     0.3801E+01  -1.59438   3.98596
    3930.00   4.594393     0.3730E+01  -1.60262   4.00656
    3950.00   4.596597     0.3651E+01  -1.61197   4.02992
    3970.00   4.598790     0.3586E+01  -1.61973   4.04934
    3990.00   4.600973     0.3507E+01  -1.62944   4.07361
    4010.00   4.603145     0.3450E+01  -1.63653   4.09134
    4030.00   4.605305     0.3392E+01  -1.64391   4.10977
    4050.00   4.607455     0.3322E+01  -1.65292   4.13230
    4070.00   4.609594     0.3266E+01  -1.66032   4.15080
    4090.00   4.611723     0.3207E+01  -1.66818   4.17046
    4110.00   4.613842     0.3152E+01  -1.67575   4.18938
    4130.00   4.615950     0.3099E+01  -1.68308   4.20770
    4150.00   4.618048     0.3043E+01  -1.69109   4.22772
    4170.00   4.620136     0.2990E+01  -1.69872   4.24681
    4190.00   4.622214     0.2935E+01  -1.70669   4.26673
    4210.00   4.624282     0.2881E+01  -1.71480   4.28700
    4230.00   4.626340     0.2842E+01  -1.72067   4.30169
    4250.00   4.628389     0.2789E+01  -1.72893   4.32233
    4270.00   4.630428     0.2746E+01  -1.73571   4.33928
    4290.00   4.632457     0.2620E+01  -1.75598   4.38995
    4310.00   4.634478     0.2494E+01  -1.77741   4.44351
    4330.00   4.636488     0.2486E+01  -1.77888   4.44721
    4350.00   4.638489     0.2379E+01  -1.79802   4.49504
    4370.00   4.640481     0.2314E+01  -1.80992   4.52480
    4390.00   4.642465     0.2266E+01  -1.81901   4.54751
    4410.00   4.644439     0.2178E+01  -1.83625   4.59062
    4430.00   4.646404     0.2145E+01  -1.84281   4.60704
    4450.00   4.648360     0.2106E+01  -1.85081   4.62703
    4470.00   4.650308     0.2033E+01  -1.86609   4.66523
    4490.00   4.652246     0.2029E+01  -1.86697   4.66743
    4510.00   4.654177     0.1978E+01  -1.87802   4.69506
    4530.00   4.656098     0.1928E+01  -1.88931   4.72329
    4550.00   4.658011     0.1917E+01  -1.89173   4.72932
    4570.00   4.659916     0.1894E+01  -1.89705   4.74262
    4590.00   4.661813     0.1834E+01  -1.91082   4.77705
    4610.00   4.663701     0.1836E+01  -1.91058   4.77644
    4630.00   4.665581     0.1800E+01  -1.91900   4.79750
    4650.00   4.667453     0.1782E+01  -1.92352   4.80879
    4670.00   4.669317     0.1769E+01  -1.92659   4.81648
    4690.00   4.671173     0.1736E+01  -1.93483   4.83708
    4710.00   4.673021     0.1707E+01  -1.94222   4.85554
    4730.00   4.674861     0.1706E+01  -1.94228   4.85571
    4750.00   4.676694     0.1669E+01  -1.95196   4.87991
    4770.00   4.678518     0.1647E+01  -1.95769   4.89422
    4790.00   4.680336     0.1631E+01  -1.96199   4.90498
    4810.00   4.682145     0.1591E+01  -1.97253   4.93133
    4830.00   4.683947     0.1594E+01  -1.97192   4.92981
    4850.00   4.685741     0.1565E+01  -1.97984   4.94960
    4870.00   4.687529     0.1535E+01  -1.98827   4.97066
    4890.00   4.689309     0.1514E+01  -1.99410   4.98525
    4910.00   4.691082     0.1496E+01  -1.99942   4.99856
    4930.00   4.692847     0.1472E+01  -2.00635   5.01588
    4950.00   4.694605     0.1448E+01  -2.01355   5.03388
    4970.00   4.696356     0.1437E+01  -2.01702   5.04255
    4990.00   4.698101     0.1416E+01  -2.02320   5.05799
    5010.00   4.699838     0.1398E+01  -2.02871   5.07178
    5030.00   4.701568     0.1380E+01  -2.03442   5.08604
    5050.00   4.703291     0.1351E+01  -2.04355   5.10887
    5070.00   4.705008     0.1340E+01  -2.04722   5.11806
    5090.00   4.706717     0.1324E+01  -2.05255   5.13136
    5110.00   4.708421     0.1300E+01  -2.06035   5.15087
    5130.00   4.710117     0.1291E+01  -2.06349   5.15872
    5150.00   4.711807     0.1268E+01  -2.07114   5.17785
    5170.00   4.713490     0.1262E+01  -2.07326   5.18315
    5190.00   4.715167     0.1239E+01  -2.08128   5.20321
    5210.00   4.716838     0.1226E+01  -2.08598   5.21494
    5230.00   4.718502     0.1205E+01  -2.09329   5.23323
    5250.00   4.720160     0.1195E+01  -2.09693   5.24233
    5270.00   4.721810     0.1188E+01  -2.09956   5.24891
    5290.00   4.723455     0.1162E+01  -2.10926   5.27315
    5310.00   4.725095     0.1147E+01  -2.11467   5.28668
    5330.00   4.726727     0.1137E+01  -2.11876   5.29689
    5350.00   4.728354     0.1123E+01  -2.12394   5.30984
    5370.00   4.729974     0.1110E+01  -2.12885   5.32213
    5390.00   4.731589     0.1098E+01  -2.13385   5.33463
    5410.00   4.733197     0.1084E+01  -2.13912   5.34781
    5430.00   4.734800     0.1065E+01  -2.14689   5.36724
    5450.00   4.736397     0.1059E+01  -2.14934   5.37334
    5470.00   4.737988     0.1043E+01  -2.15624   5.39061
    5490.00   4.739573     0.1031E+01  -2.16101   5.40252
    5510.00   4.741152     0.1018E+01  -2.16673   5.41681
    5530.00   4.742725     0.1017E+01  -2.16688   5.41719
    5550.00   4.744293     0.9923E+00  -2.17768   5.44420
    5570.00   4.745855     0.9890E+00  -2.17914   5.44785
    5590.00   4.747412     0.9728E+00  -2.18632   5.46580
    5610.00   4.748963     0.9646E+00  -2.19001   5.47502
    5630.00   4.750508     0.9480E+00  -2.19755   5.49387
    5650.00   4.752048     0.9422E+00  -2.20019   5.50046
    5670.00   4.753583     0.9307E+00  -2.20553   5.51382
    5690.00   4.755112     0.9149E+00  -2.21298   5.53244
    5710.00   4.756636     0.9100E+00  -2.21530   5.53824
    5730.00   4.758155     0.8985E+00  -2.22082   5.55205
    5750.00   4.759668     0.8878E+00  -2.22601   5.56502
    5770.00   4.761176     0.8762E+00  -2.23176   5.57939
    5790.00   4.762679     0.8693E+00  -2.23519   5.58797
    5810.00   4.764176     0.8562E+00  -2.24178   5.60446
    5830.00   4.765669     0.8469E+00  -2.24652   5.61630
    5850.00   4.767156     0.8374E+00  -2.25139   5.62847
    5870.00   4.768638     0.8249E+00  -2.25794   5.64484
    5890.00   4.770115     0.8160E+00  -2.26262   5.65656
    5910.00   4.771587     0.8072E+00  -2.26735   5.66836
    5930.00   4.773055     0.7985E+00  -2.27206   5.68015
    5950.00   4.774517     0.7876E+00  -2.27802   5.69505
    5970.00   4.775974     0.7805E+00  -2.28195   5.70487
    5990.00   4.777427     0.7713E+00  -2.28709   5.71773
    6010.00   4.778874     0.7624E+00  -2.29218   5.73045
    6030.00   4.780317     0.7534E+00  -2.29734   5.74334
    6050.00   4.781755     0.7428E+00  -2.30348   5.75869
    6070.00   4.783189     0.7345E+00  -2.30837   5.77091
    6090.00   4.784617     0.7259E+00  -2.31347   5.78369
    6110.00   4.786041     0.7166E+00  -2.31908   5.79769
    6130.00   4.787460     0.7095E+00  -2.32339   5.80847
    6150.00   4.788875     0.7018E+00  -2.32810   5.82026
    6170.00   4.790285     0.6947E+00  -2.33254   5.83136
    6190.00   4.791691     0.6865E+00  -2.33771   5.84429
    6210.00   4.793092     0.6791E+00  -2.34237   5.85593
    6230.00   4.794488     0.6702E+00  -2.34813   5.87032
    6250.00   4.795880     0.6615E+00  -2.35379   5.88448
    6270.00   4.797267     0.6540E+00  -2.35875   5.89688
    6290.00   4.798651     0.6470E+00  -2.36341   5.90852
    6310.00   4.800029     0.6393E+00  -2.36862   5.92156
    6330.00   4.801404     0.6334E+00  -2.37264   5.93160
    6350.00   4.802773     0.6254E+00  -2.37818   5.94546
    6370.00   4.804139     0.6196E+00  -2.38221   5.95554
    6390.00   4.805501     0.6112E+00  -2.38814   5.97034
    6420.00   4.807535     0.6014E+00  -2.39519   5.98798
    6460.00   4.810232     0.5875E+00  -2.40536   6.01341
    6500.00   4.812913     0.5745E+00  -2.41506   6.03765
    6540.00   4.815578     0.5616E+00  -2.42490   6.06226
    6580.00   4.818226     0.5496E+00  -2.43431   6.08578
    6620.00   4.820858     0.5371E+00  -2.44428   6.11069
    6660.00   4.823474     0.5254E+00  -2.45388   6.13470
    6700.00   4.826075     0.5140E+00  -2.46340   6.15850
    6740.00   4.828660     0.5025E+00  -2.47323   6.18308
    6780.00   4.831230     0.4916E+00  -2.48272   6.20679
    6820.00   4.833784     0.4809E+00  -2.49230   6.23076
    6860.00   4.836324     0.4707E+00  -2.50159   6.25397
    6900.00   4.838849     0.4604E+00  -2.51118   6.27794
    6940.00   4.841359     0.4506E+00  -2.52055   6.30136
    6980.00   4.843855     0.4410E+00  -2.52985   6.32463
    7020.00   4.846337     0.4315E+00  -2.53935   6.34837
    7060.00   4.848804     0.4226E+00  -2.54844   6.37110
    7100.00   4.851258     0.4136E+00  -2.55771   6.39428
    7140.00   4.853698     0.4050E+00  -2.56684   6.41710
    7180.00   4.856124     0.3965E+00  -2.57605   6.44013
    7220.00   4.858537     0.3883E+00  -2.58512   6.46280
    7260.00   4.860937     0.3803E+00  -2.59424   6.48561
    7300.00   4.863323     0.3725E+00  -2.60321   6.50804
    7340.00   4.865696     0.3648E+00  -2.61229   6.53073
    7380.00   4.868056     0.3574E+00  -2.62114   6.55284
    7420.00   4.870404     0.3500E+00  -2.63027   6.57569
    7460.00   4.872739     0.3429E+00  -2.63923   6.59807
    7500.00   4.875061     0.3361E+00  -2.64792   6.61979
    7540.00   4.877371     0.3293E+00  -2.65675   6.64187
    7580.00   4.879669     0.3229E+00  -2.66520   6.66300
    7620.00   4.881955     0.3166E+00  -2.67389   6.68473
    7660.00   4.884229     0.3103E+00  -2.68253   6.70632
    7700.00   4.886491     0.3042E+00  -2.69120   6.72801
    7740.00   4.888741     0.2983E+00  -2.69970   6.74925
    7780.00   4.890980     0.2925E+00  -2.70820   6.77050
    7820.00   4.893207     0.2868E+00  -2.71670   6.79174
    7860.00   4.895422     0.2813E+00  -2.72512   6.81281
    7900.00   4.897627     0.2759E+00  -2.73353   6.83382
    7940.00   4.899820     0.2707E+00  -2.74190   6.85475
    7980.00   4.902003     0.2655E+00  -2.75019   6.87548
    8020.00   4.904174     0.2605E+00  -2.75861   6.89652
    8060.00   4.906335     0.2556E+00  -2.76685   6.91712
    8100.00   4.908485     0.2508E+00  -2.77496   6.93739
    8140.00   4.910625     0.2461E+00  -2.78321   6.95802
    8180.00   4.912753     0.2416E+00  -2.79124   6.97810
    8220.00   4.914872     0.2372E+00  -2.79931   6.99828
    8260.00   4.916980     0.2328E+00  -2.80740   7.01849
    8300.00   4.919078     0.2285E+00  -2.81540   7.03849
    8340.00   4.921166     0.2243E+00  -2.82349   7.05874
    8380.00   4.923244     0.2202E+00  -2.83145   7.07863
    8420.00   4.925312     0.2163E+00  -2.83923   7.09809
    8460.00   4.927370     0.2124E+00  -2.84715   7.11788
    8500.00   4.929419     0.2086E+00  -2.85498   7.13745
    8540.00   4.931458     0.2049E+00  -2.86276   7.15689
    8580.00   4.933487     0.2013E+00  -2.87051   7.17627
    8620.00   4.935507     0.1977E+00  -2.87823   7.19558
    8660.00   4.937518     0.1943E+00  -2.88590   7.21474
    8700.00   4.939519     0.1909E+00  -2.89357   7.23392
    8740.00   4.941511     0.1876E+00  -2.90120   7.25300
    8780.00   4.943495     0.1843E+00  -2.90882   7.27204
    8820.00   4.945469     0.1811E+00  -2.91645   7.29113
    8860.00   4.947433     0.1780E+00  -2.92397   7.30992
    8900.00   4.949390     0.1749E+00  -2.93151   7.32877
    8940.00   4.951338     0.1720E+00  -2.93889   7.34724
    8980.00   4.953277     0.1690E+00  -2.94647   7.36618
    9020.00   4.955207     0.1662E+00  -2.95374   7.38434
    9060.00   4.957129     0.1634E+00  -2.96107   7.40267
    9100.00   4.959042     0.1606E+00  -2.96866   7.42164
    9140.00   4.960946     0.1580E+00  -2.97581   7.43953
    9180.00   4.962843     0.1553E+00  -2.98308   7.45769
    9220.00   4.964731     0.1528E+00  -2.99024   7.47559
    9260.00   4.966611     0.1503E+00  -2.99748   7.49370
    9300.00   4.968483     0.1478E+00  -3.00466   7.51164
    9340.00   4.970347     0.1454E+00  -3.01184   7.52961
    9380.00   4.972203     0.1430E+00  -3.01894   7.54736
    9420.00   4.974051     0.1407E+00  -3.02605   7.56513
    9460.00   4.975891     0.1384E+00  -3.03316   7.58289
    9500.00   4.977724     0.1362E+00  -3.04019   7.60049
    9540.00   4.979548     0.1340E+00  -3.04721   7.61802
    9580.00   4.981365     0.1319E+00  -3.05418   7.63545
    9620.00   4.983175     0.1298E+00  -3.06116   7.65290
    9660.00   4.984977     0.1277E+00  -3.06806   7.67015
    9700.00   4.986772     0.1257E+00  -3.07496   7.68740
    9740.00   4.988559     0.1237E+00  -3.08207   7.70517
    9780.00   4.990339     0.1218E+00  -3.08877   7.72193
    9820.00   4.992111     0.1199E+00  -3.09554   7.73884
    9860.00   4.993877     0.1180E+00  -3.10232   7.75581
    9900.00   4.995635     0.1162E+00  -3.10908   7.77270
    9940.00   4.997386     0.1144E+00  -3.11586   7.78965
    9980.00   4.999130     0.1127E+00  -3.12257   7.80642
   10020.00   5.000868     0.1109E+00  -3.12926   7.82315
   20000.00   5.301030     0.7501E-02  -4.29922  10.74804
   40000.00   5.602060     0.4834E-03  -5.49004  13.72510
   60000.00   5.778151     0.9618E-04  -6.19123  15.47808
   80000.00   5.903090     0.3050E-04  -6.69009  16.72523
  100000.00   6.000000     0.1249E-04  -7.07764  17.69410
  120000.00   6.079181     0.6021E-05  -7.39463  18.48659
  140000.00   6.146128     0.3247E-05  -7.66283  19.15707
  160000.00   6.204120     0.1901E-05  -7.89528  19.73821
