age =   15.0    [Fe/H] =    0.25

wavele(nm) log wave(A)   Hlam       log(Hlam/Hlam(V))  Hlam(mag(V)) 
      90.50   2.956649     0.8082E-14 -16.09882  40.24704
      91.50   2.961421     0.1330E-12 -14.88237  37.20592
      92.50   2.966142     0.6824E-12 -14.17227  35.43069
      93.50   2.970812     0.9844E-12 -14.01315  35.03287
      94.50   2.975432     0.1508E-11 -13.82795  34.56987
      95.50   2.980003     0.2300E-11 -13.64452  34.11130
      96.50   2.984527     0.3652E-11 -13.44375  33.60938
      97.50   2.989005     0.5124E-11 -13.29674  33.24186
      98.50   2.993436     0.7468E-11 -13.13313  32.83282
      99.50   2.997823     0.1057E-10 -12.98211  32.45528
     100.50   3.002166     0.1593E-10 -12.80415  32.01038
     101.50   3.006466     0.2276E-10 -12.64915  31.62288
     102.50   3.010724     0.2834E-10 -12.55390  31.38476
     103.50   3.014940     0.4584E-10 -12.34504  30.86261
     104.50   3.019116     0.6515E-10 -12.19241  30.48103
     105.50   3.023252     0.8449E-10 -12.07952  30.19880
     106.50   3.027350     0.1201E-09 -11.92683  29.81708
     107.50   3.031409     0.1653E-09 -11.78815  29.47038
     108.50   3.035430     0.2260E-09 -11.65218  29.13044
     109.50   3.039414     0.2885E-09 -11.54618  28.86544
     110.50   3.043362     0.4199E-09 -11.38313  28.45783
     111.50   3.047275     0.5778E-09 -11.24456  28.11140
     112.50   3.051152     0.8041E-09 -11.10100  27.75249
     113.50   3.054996     0.1142E-08 -10.94860  27.37149
     114.50   3.058805     0.1529E-08 -10.82194  27.05486
     115.50   3.062582     0.1958E-08 -10.71448  26.78620
     116.50   3.066326     0.2605E-08 -10.59054  26.47634
     117.50   3.070038     0.3435E-08 -10.47039  26.17597
     118.50   3.073718     0.4245E-08 -10.37848  25.94621
     119.50   3.077368     0.4945E-08 -10.31219  25.78048
     120.50   3.080987     0.6070E-08 -10.22314  25.55785
     121.50   3.084576     0.4633E-08 -10.34045  25.85114
     122.50   3.088136     0.9345E-08 -10.03576  25.08940
     123.50   3.091667     0.1334E-07  -9.88121  24.70303
     124.50   3.095169     0.1679E-07  -9.78125  24.45314
     125.50   3.098644     0.2046E-07  -9.69533  24.23832
     126.50   3.102091     0.2472E-07  -9.61321  24.03303
     127.50   3.105510     0.3038E-07  -9.52373  23.80933
     128.50   3.108903     0.3541E-07  -9.45720  23.64299
     129.50   3.112270     0.4350E-07  -9.36785  23.41963
     130.50   3.115611     0.5102E-07  -9.29862  23.24655
     131.50   3.118926     0.6361E-07  -9.20278  23.00696
     132.50   3.122216     0.7246E-07  -9.14624  22.86559
     133.50   3.125481     0.8522E-07  -9.07580  22.68951
     134.50   3.128722     0.1043E-06  -8.98810  22.47025
     135.50   3.131939     0.1276E-06  -8.90053  22.25133
     136.50   3.135133     0.1469E-06  -8.83938  22.09846
     137.50   3.138303     0.1710E-06  -8.77324  21.93310
     138.50   3.141450     0.1991E-06  -8.70730  21.76824
     139.50   3.144574     0.2346E-06  -8.63601  21.59003
     140.50   3.147676     0.2881E-06  -8.54681  21.36702
     141.50   3.150756     0.3415E-06  -8.47294  21.18235
     142.50   3.153815     0.4062E-06  -8.39762  20.99405
     143.50   3.156852     0.4895E-06  -8.31653  20.79133
     144.20   3.158965     0.5869E-06  -8.23777  20.59441
     144.70   3.160469     0.5911E-06  -8.23463  20.58657
     145.50   3.162863     0.6880E-06  -8.16875  20.42188
     146.50   3.165838     0.8527E-06  -8.07552  20.18880
     147.50   3.168792     0.9967E-06  -8.00776  20.01940
     148.50   3.171726     0.1134E-05  -7.95159  19.87897
     149.50   3.174641     0.1409E-05  -7.85731  19.64329
     150.50   3.177536     0.1702E-05  -7.77547  19.43869
     151.20   3.179552     0.1607E-05  -7.80028  19.50070
     151.70   3.180986     0.1872E-05  -7.73405  19.33512
     152.50   3.183270     0.3492E-05  -7.46325  18.65813
     153.50   3.186108     0.5508E-05  -7.26531  18.16328
     154.50   3.188928     0.4880E-05  -7.31787  18.29468
     155.50   3.191730     0.7760E-05  -7.11648  17.79119
     156.50   3.194514     0.7747E-05  -7.11716  17.79290
     157.50   3.197281     0.1667E-04  -6.78446  16.96114
     158.50   3.200029     0.2010E-04  -6.70316  16.75790
     159.50   3.202761     0.2365E-04  -6.63243  16.58107
     160.50   3.205475     0.2509E-04  -6.60685  16.51712
     161.50   3.208173     0.2746E-04  -6.56770  16.41924
     162.50   3.210853     0.3123E-04  -6.51175  16.27938
     163.50   3.213518     0.3975E-04  -6.40704  16.01759
     164.50   3.216166     0.5673E-04  -6.25252  15.63131
     165.50   3.218798     0.4152E-04  -6.38807  15.97017
     166.50   3.221414     0.6938E-04  -6.16507  15.41268
     167.20   3.223236     0.4979E-04  -6.30920  15.77301
     167.70   3.224533     0.1907E-03  -5.72595  14.31488
     168.50   3.226600     0.2151E-03  -5.67360  14.18400
     169.50   3.229170     0.2773E-03  -5.56338  13.90846
     170.50   3.231725     0.2966E-03  -5.53422  13.83554
     171.50   3.234264     0.2871E-03  -5.54827  13.87067
     172.50   3.236789     0.3984E-03  -5.40604  13.51509
     173.50   3.239300     0.4794E-03  -5.32559  13.31399
     174.50   3.241796     0.6814E-03  -5.17295  12.93237
     175.50   3.244277     0.8898E-03  -5.05702  12.64256
     176.50   3.246745     0.8766E-03  -5.06351  12.65877
     177.50   3.249198     0.9128E-03  -5.04596  12.61491
     178.50   3.251638     0.1302E-02  -4.89179  12.22948
     179.50   3.254065     0.1456E-02  -4.84307  12.10768
     180.50   3.256477     0.1749E-02  -4.76360  11.90900
     181.50   3.258877     0.1596E-02  -4.80342  12.00856
     182.50   3.261263     0.2181E-02  -4.66759  11.66897
     183.50   3.263636     0.2214E-02  -4.66111  11.65277
     184.50   3.265996     0.1774E-02  -4.75736  11.89339
     185.50   3.268344     0.2390E-02  -4.62801  11.57002
     186.50   3.270679     0.2930E-02  -4.53952  11.34880
     187.50   3.273001     0.3169E-02  -4.50541  11.26353
     188.50   3.275311     0.3482E-02  -4.46454  11.16134
     189.50   3.277609     0.4691E-02  -4.33503  10.83758
     190.50   3.279895     0.4539E-02  -4.34938  10.87346
     191.50   3.282169     0.5307E-02  -4.28144  10.70360
     192.50   3.284431     0.5288E-02  -4.28305  10.70762
     193.50   3.286681     0.3524E-02  -4.45933  11.14833
     194.50   3.288920     0.6905E-02  -4.16715  10.41788
     195.50   3.291147     0.7668E-02  -4.12166  10.30414
     196.70   3.293804     0.9769E-02  -4.01645  10.04113
     197.60   3.295787     0.9934E-02  -4.00921  10.02301
     198.40   3.297542     0.1118E-01  -3.95777   9.89442
     199.50   3.299943     0.1126E-01  -3.95466   9.88664
     200.50   3.302114     0.1129E-01  -3.95356   9.88390
     201.50   3.304275     0.1271E-01  -3.90203   9.75507
     202.50   3.306425     0.1034E-01  -3.99188   9.97971
     203.50   3.308564     0.1429E-01  -3.85123   9.62808
     204.50   3.310693     0.1637E-01  -3.79229   9.48073
     205.50   3.312812     0.1773E-01  -3.75756   9.39390
     206.50   3.314920     0.1778E-01  -3.75638   9.39094
     207.40   3.316809     0.1867E-01  -3.73509   9.33774
     207.80   3.317646     0.3885E-01  -3.41696   8.54239
     208.50   3.319106     0.4946E-01  -3.31203   8.28008
     209.50   3.321184     0.4833E-01  -3.32211   8.30528
     210.50   3.323252     0.4989E-01  -3.30833   8.27083
     211.50   3.325310     0.5896E-01  -3.23576   8.08940
     212.50   3.327359     0.5431E-01  -3.27140   8.17851
     213.50   3.329398     0.6117E-01  -3.21978   8.04946
     214.50   3.331427     0.7052E-01  -3.15802   7.89506
     215.50   3.333447     0.6609E-01  -3.18620   7.96549
     216.50   3.335458     0.6368E-01  -3.20231   8.00577
     217.50   3.337459     0.6484E-01  -3.19447   7.98618
     218.50   3.339452     0.7883E-01  -3.10965   7.77412
     219.50   3.341434     0.8527E-01  -3.07552   7.68879
     220.50   3.343409     0.8736E-01  -3.06500   7.66250
     221.50   3.345374     0.7464E-01  -3.13336   7.83339
     222.50   3.347330     0.9057E-01  -3.04932   7.62329
     223.50   3.349277     0.1272E+00  -2.90194   7.25486
     224.50   3.351216     0.1286E+00  -2.89707   7.24268
     225.50   3.353147     0.1109E+00  -2.96145   7.40363
     226.50   3.355068     0.8842E-01  -3.05975   7.64938
     227.50   3.356982     0.1036E+00  -2.99099   7.47748
     228.50   3.358886     0.1497E+00  -2.83112   7.07780
     229.50   3.360783     0.1324E+00  -2.88452   7.21131
     230.50   3.362671     0.1342E+00  -2.87852   7.19630
     231.50   3.364551     0.1453E+00  -2.84417   7.11042
     232.50   3.366423     0.1447E+00  -2.84594   7.11486
     233.50   3.368287     0.1584E+00  -2.80663   7.01658
     234.50   3.370143     0.1085E+00  -2.97082   7.42704
     235.50   3.371991     0.1606E+00  -2.80057   7.00143
     236.50   3.373831     0.1264E+00  -2.90474   7.26184
     237.50   3.375664     0.1514E+00  -2.82617   7.06542
     238.50   3.377488     0.1203E+00  -2.92612   7.31531
     239.50   3.379306     0.1420E+00  -2.85405   7.13513
     240.50   3.381115     0.1649E+00  -2.78902   6.97256
     241.50   3.382917     0.1468E+00  -2.83964   7.09909
     242.50   3.384712     0.2272E+00  -2.64992   6.62479
     243.50   3.386499     0.2524E+00  -2.60429   6.51072
     244.50   3.388279     0.3119E+00  -2.51226   6.28065
     245.50   3.390052     0.3403E+00  -2.47444   6.18610
     246.50   3.391817     0.2609E+00  -2.58987   6.47469
     247.50   3.393575     0.2477E+00  -2.61232   6.53079
     248.50   3.395326     0.1041E+00  -2.98899   7.47247
     249.50   3.397071     0.1579E+00  -2.80793   7.01983
     250.50   3.398808     0.2702E+00  -2.57468   6.43671
     251.30   3.400192     0.1422E+00  -2.85354   7.13384
     251.80   3.401056     0.1014E+00  -3.00026   7.50066
     252.50   3.402261     0.1167E+00  -2.93913   7.34782
     253.50   3.403978     0.2717E+00  -2.57228   6.43069
     254.50   3.405688     0.2855E+00  -2.55069   6.37673
     255.50   3.407391     0.6656E+00  -2.18313   5.45782
     256.50   3.409087     0.4587E+00  -2.34477   5.86192
     257.50   3.410777     0.6732E+00  -2.17819   5.44547
     258.50   3.412461     0.6160E+00  -2.21676   5.54191
     259.50   3.414137     0.5982E+00  -2.22950   5.57375
     260.50   3.415808     0.5770E+00  -2.24511   5.61278
     261.50   3.417472     0.5158E+00  -2.29385   5.73462
     262.50   3.419129     0.7263E+00  -2.14519   5.36298
     263.50   3.420781     0.1468E+01  -1.83955   4.59889
     264.50   3.422426     0.1783E+01  -1.75507   4.38767
     265.50   3.424065     0.3269E+01  -1.49187   3.72968
     266.50   3.425697     0.1706E+01  -1.77438   4.43595
     267.50   3.427324     0.1848E+01  -1.73968   4.34920
     268.50   3.428944     0.2466E+01  -1.61438   4.03594
     269.50   3.430559     0.1445E+01  -1.84660   4.61650
     270.50   3.432167     0.2168E+01  -1.67017   4.17543
     271.50   3.433770     0.1432E+01  -1.85040   4.62601
     272.50   3.435366     0.8437E+00  -2.08011   5.20028
     273.50   3.436957     0.1237E+01  -1.91379   4.78448
     274.50   3.438542     0.8944E+00  -2.05477   5.13693
     275.50   3.440122     0.1237E+01  -1.91385   4.78462
     276.50   3.441695     0.1707E+01  -1.77397   4.43493
     277.50   3.443263     0.1850E+01  -1.73904   4.34759
     278.50   3.444825     0.1107E+01  -1.96224   4.90559
     279.50   3.446382     0.5480E+00  -2.26755   5.66889
     280.50   3.447933     0.6677E+00  -2.18177   5.45442
     281.50   3.449478     0.1643E+01  -1.79074   4.47686
     282.50   3.451018     0.2171E+01  -1.66970   4.17425
     283.50   3.452553     0.1752E+01  -1.76274   4.40685
     284.50   3.454082     0.9886E+00  -2.01132   5.02829
     285.50   3.455606     0.4694E+00  -2.33478   5.83696
     286.50   3.457125     0.1461E+01  -1.84177   4.60443
     287.50   3.458638     0.2725E+01  -1.57090   3.92725
     288.50   3.460146     0.2895E+01  -1.54468   3.86169
     289.50   3.461648     0.4352E+01  -1.36766   3.41914
     291.00   3.463893     0.7090E+01  -1.15570   2.88925
     293.00   3.466868     0.6302E+01  -1.20682   3.01705
     295.00   3.469822     0.5786E+01  -1.24397   3.10993
     297.00   3.472756     0.6018E+01  -1.22687   3.06718
     299.00   3.475671     0.6328E+01  -1.20504   3.01260
     301.00   3.478566     0.5976E+01  -1.22989   3.07472
     303.00   3.481443     0.7233E+01  -1.14700   2.86751
     305.00   3.484300     0.7452E+01  -1.13407   2.83519
     307.00   3.487138     0.8734E+01  -1.06513   2.66283
     309.00   3.489959     0.7700E+01  -1.11980   2.79951
     311.00   3.492760     0.1068E+02  -0.97779   2.44447
     313.00   3.495544     0.9159E+01  -1.04447   2.61117
     315.00   3.498311     0.9951E+01  -1.00844   2.52110
     317.00   3.501059     0.1177E+02  -0.93552   2.33881
     319.00   3.503791     0.9486E+01  -1.02925   2.57313
     321.00   3.506505     0.1046E+02  -0.98681   2.46702
     323.00   3.509202     0.8812E+01  -1.06126   2.65315
     325.00   3.511883     0.1413E+02  -0.85617   2.14042
     327.00   3.514548     0.1716E+02  -0.77186   1.92966
     329.00   3.517196     0.1720E+02  -0.77072   1.92681
     331.00   3.519828     0.1509E+02  -0.82773   2.06932
     333.00   3.522444     0.1603E+02  -0.80135   2.00337
     335.00   3.525045     0.1536E+02  -0.81995   2.04987
     337.00   3.527630     0.1016E+02  -0.99930   2.49824
     339.00   3.530200     0.1214E+02  -0.92204   2.30511
     341.00   3.532754     0.1275E+02  -0.90082   2.25206
     343.00   3.535294     0.1391E+02  -0.86304   2.15760
     345.00   3.537819     0.1547E+02  -0.81697   2.04242
     347.00   3.540329     0.1645E+02  -0.79008   1.97520
     349.00   3.542825     0.1948E+02  -0.71673   1.79182
     351.00   3.545307     0.2121E+02  -0.67985   1.69962
     353.00   3.547775     0.1789E+02  -0.75373   1.88432
     355.00   3.550228     0.2049E+02  -0.69475   1.73687
     357.00   3.552668     0.1287E+02  -0.89677   2.24191
     359.00   3.555094     0.1421E+02  -0.85370   2.13426
     361.00   3.557507     0.1979E+02  -0.70978   1.77445
     363.00   3.559907     0.2152E+02  -0.67352   1.68381
     364.00   3.561101     0.2191E+02  -0.66573   1.66431
     365.00   3.562293     0.2448E+02  -0.61756   1.54389
     367.00   3.564666     0.2773E+02  -0.56332   1.40829
     369.00   3.567026     0.2307E+02  -0.64323   1.60808
     371.00   3.569374     0.2342E+02  -0.63677   1.59192
     373.00   3.571709     0.1220E+02  -0.92012   2.30030
     375.00   3.574031     0.1453E+02  -0.84403   2.11009
     377.00   3.576341     0.2243E+02  -0.65541   1.63852
     379.00   3.578639     0.2311E+02  -0.64258   1.60644
     381.00   3.580925     0.1988E+02  -0.70796   1.76991
     383.00   3.583199     0.9498E+01  -1.02870   2.57175
     385.00   3.585461     0.1354E+02  -0.87455   2.18637
     387.00   3.587711     0.1368E+02  -0.87036   2.17589
     389.00   3.589950     0.2092E+02  -0.68579   1.71447
     391.00   3.592177     0.2751E+02  -0.56691   1.41727
     393.00   3.594393     0.1189E+02  -0.93097   2.32742
     395.00   3.596597     0.2302E+02  -0.64416   1.61039
     397.00   3.598790     0.1564E+02  -0.81198   2.02994
     399.00   3.600973     0.4038E+02  -0.40010   1.00025
     401.00   3.603144     0.4635E+02  -0.34029   0.85074
     403.00   3.605305     0.4497E+02  -0.35342   0.88355
     405.00   3.607455     0.4262E+02  -0.37674   0.94186
     407.00   3.609594     0.3873E+02  -0.41826   1.04565
     409.00   3.611723     0.5380E+02  -0.27557   0.68893
     411.00   3.613842     0.4978E+02  -0.30930   0.77325
     413.00   3.615950     0.4618E+02  -0.34184   0.85461
     415.00   3.618048     0.4435E+02  -0.35942   0.89854
     417.00   3.620136     0.4577E+02  -0.34574   0.86435
     419.00   3.622214     0.4544E+02  -0.34889   0.87223
     421.00   3.624282     0.4599E+02  -0.34361   0.85903
     423.00   3.626340     0.4073E+02  -0.39639   0.99097
     425.00   3.628389     0.4820E+02  -0.32324   0.80809
     427.00   3.630428     0.4507E+02  -0.35247   0.88118
     429.00   3.632457     0.4242E+02  -0.37873   0.94682
     431.00   3.634477     0.3775E+02  -0.42943   1.07357
     433.00   3.636488     0.5920E+02  -0.23397   0.58494
     435.00   3.638489     0.6132E+02  -0.21871   0.54678
     437.00   3.640481     0.6661E+02  -0.18278   0.45694
     439.00   3.642465     0.5612E+02  -0.25721   0.64302
     441.00   3.644439     0.5952E+02  -0.23166   0.57916
     443.00   3.646404     0.6527E+02  -0.19160   0.47900
     445.00   3.648360     0.6706E+02  -0.17987   0.44969
     447.00   3.650307     0.7383E+02  -0.13810   0.34526
     449.00   3.652246     0.7703E+02  -0.11965   0.29911
     451.00   3.654176     0.9193E+02  -0.04287   0.10717
     453.00   3.656098     0.7634E+02  -0.12359   0.30897
     455.00   3.658011     0.8194E+02  -0.09280   0.23200
     457.00   3.659916     0.9113E+02  -0.04664   0.11660
     459.00   3.661813     0.8486E+02  -0.07764   0.19409
     461.00   3.663701     0.8770E+02  -0.06330   0.15824
     463.00   3.665581     0.8447E+02  -0.07962   0.19904
     465.00   3.667453     0.8589E+02  -0.07237   0.18093
     467.00   3.669317     0.9181E+02  -0.04344   0.10861
     469.00   3.671173     0.8968E+02  -0.05361   0.13402
     471.00   3.673021     0.8670E+02  -0.06831   0.17077
     473.00   3.674861     0.8994E+02  -0.05235   0.13088
     475.00   3.676694     0.9268E+02  -0.03935   0.09837
     477.00   3.678518     0.8936E+02  -0.05517   0.13793
     479.00   3.680336     0.9115E+02  -0.04659   0.11646
     481.00   3.682145     0.9213E+02  -0.04190   0.10476
     483.00   3.683947     0.9686E+02  -0.02016   0.05040
     485.00   3.685742     0.9224E+02  -0.04141   0.10353
     487.00   3.687529     0.8476E+02  -0.07813   0.19532
     489.00   3.689309     0.9406E+02  -0.03290   0.08225
     491.00   3.691082     0.9475E+02  -0.02974   0.07434
     493.00   3.692847     0.9234E+02  -0.04093   0.10234
     495.00   3.694605     0.9612E+02  -0.02351   0.05878
     497.00   3.696356     0.9067E+02  -0.04886   0.12215
     499.00   3.698101     0.8335E+02  -0.08543   0.21358
     501.00   3.699838     0.7677E+02  -0.12111   0.30278
     503.00   3.701568     0.8379E+02  -0.08311   0.20778
     505.00   3.703291     0.8345E+02  -0.08488   0.21219
     507.00   3.705008     0.8759E+02  -0.06388   0.15971
     509.00   3.706718     0.8156E+02  -0.09482   0.23704
     511.00   3.708421     0.8463E+02  -0.07878   0.19695
     513.00   3.710117     0.8107E+02  -0.09748   0.24371
     515.00   3.711807     0.7769E+02  -0.11598   0.28995
     517.00   3.713490     0.6617E+02  -0.18567   0.46418
     519.00   3.715167     0.7066E+02  -0.15712   0.39281
     521.00   3.716838     0.8050E+02  -0.10052   0.25130
     523.00   3.718502     0.9317E+02  -0.03703   0.09258
     525.00   3.720159     0.9965E+02  -0.00785   0.01962
     527.00   3.721811     0.8394E+02  -0.08234   0.20584
     529.00   3.723456     0.1029E+03   0.00619  -0.01547
     531.00   3.725095     0.1122E+03   0.04367  -0.10917
     533.00   3.726727     0.9394E+02  -0.03345   0.08363
     535.00   3.728354     0.1071E+03   0.02337  -0.05843
     537.00   3.729974     0.1057E+03   0.01782  -0.04455
     539.00   3.731589     0.1027E+03   0.00534  -0.01335
     541.00   3.733197     0.1016E+03   0.00064  -0.00160
     543.00   3.734800     0.1034E+03   0.00831  -0.02078
     545.00   3.736397     0.1047E+03   0.01355  -0.03387
     547.00   3.737987     0.1022E+03   0.00329  -0.00823
     549.00   3.739572     0.1034E+03   0.00813  -0.02032
     551.00   3.741152     0.1015E+03   0.00000   0.00000
     553.00   3.742725     0.1078E+03   0.02629  -0.06572
     555.00   3.744293     0.1106E+03   0.03725  -0.09312
     557.00   3.745855     0.1083E+03   0.02827  -0.07067
     559.00   3.747412     0.1042E+03   0.01148  -0.02871
     561.00   3.748963     0.1083E+03   0.02824  -0.07060
     563.00   3.750508     0.1078E+03   0.02622  -0.06554
     565.00   3.752048     0.1110E+03   0.03898  -0.09745
     567.00   3.753583     0.1082E+03   0.02798  -0.06995
     569.00   3.755112     0.1133E+03   0.04777  -0.11943
     571.00   3.756636     0.1087E+03   0.02997  -0.07492
     573.00   3.758155     0.1211E+03   0.07681  -0.19204
     575.00   3.759668     0.1155E+03   0.05608  -0.14020
     577.00   3.761176     0.1170E+03   0.06173  -0.15434
     579.00   3.762679     0.1112E+03   0.03995  -0.09987
     581.00   3.764176     0.1174E+03   0.06352  -0.15880
     583.00   3.765669     0.1220E+03   0.08015  -0.20037
     585.00   3.767156     0.1161E+03   0.05852  -0.14630
     587.00   3.768638     0.1149E+03   0.05402  -0.13504
     589.00   3.770115     0.9313E+02  -0.03723   0.09308
     591.00   3.771587     0.1118E+03   0.04220  -0.10550
     593.00   3.773055     0.1144E+03   0.05200  -0.13001
     595.00   3.774517     0.1149E+03   0.05389  -0.13472
     597.00   3.775974     0.1181E+03   0.06602  -0.16505
     599.00   3.777427     0.1160E+03   0.05822  -0.14554
     601.00   3.778874     0.1148E+03   0.05344  -0.13361
     603.00   3.780317     0.1197E+03   0.07161  -0.17902
     605.00   3.781755     0.1226E+03   0.08234  -0.20585
     607.00   3.783189     0.1226E+03   0.08226  -0.20566
     609.00   3.784617     0.1173E+03   0.06309  -0.15772
     611.00   3.786041     0.1182E+03   0.06643  -0.16607
     613.00   3.787461     0.1101E+03   0.03539  -0.08847
     615.00   3.788875     0.1142E+03   0.05118  -0.12795
     617.00   3.790285     0.1033E+03   0.00770  -0.01926
     619.00   3.791691     0.1122E+03   0.04382  -0.10955
     621.00   3.793092     0.1102E+03   0.03604  -0.09011
     623.00   3.794488     0.1057E+03   0.01792  -0.04480
     625.00   3.795880     0.1027E+03   0.00513  -0.01281
     627.00   3.797267     0.1089E+03   0.03052  -0.07629
     629.00   3.798651     0.1129E+03   0.04631  -0.11579
     631.00   3.800029     0.1100E+03   0.03510  -0.08775
     633.00   3.801404     0.1124E+03   0.04442  -0.11105
     635.00   3.802774     0.1125E+03   0.04469  -0.11173
     637.00   3.804139     0.1124E+03   0.04462  -0.11155
     639.00   3.805501     0.1166E+03   0.06021  -0.15053
     641.00   3.806858     0.1140E+03   0.05074  -0.12686
     643.00   3.808211     0.1154E+03   0.05575  -0.13939
     645.00   3.809560     0.1147E+03   0.05311  -0.13278
     647.00   3.810904     0.1146E+03   0.05282  -0.13205
     649.00   3.812245     0.1125E+03   0.04479  -0.11197
     651.00   3.813581     0.1182E+03   0.06620  -0.16550
     653.00   3.814913     0.1185E+03   0.06757  -0.16892
     655.00   3.816241     0.1164E+03   0.05980  -0.14949
     657.00   3.817565     0.1125E+03   0.04491  -0.11228
     659.00   3.818885     0.1161E+03   0.05841  -0.14603
     661.00   3.820201     0.1170E+03   0.06183  -0.15458
     663.00   3.821513     0.1147E+03   0.05330  -0.13325
     665.00   3.822822     0.1140E+03   0.05043  -0.12608
     667.00   3.824126     0.1097E+03   0.03407  -0.08518
     669.00   3.825426     0.1101E+03   0.03566  -0.08914
     671.00   3.826723     0.1039E+03   0.01036  -0.02590
     673.00   3.828015     0.1071E+03   0.02362  -0.05906
     675.00   3.829304     0.1048E+03   0.01412  -0.03529
     677.00   3.830589     0.1055E+03   0.01700  -0.04249
     679.00   3.831870     0.1038E+03   0.01001  -0.02502
     681.00   3.833147     0.1053E+03   0.01629  -0.04072
     683.00   3.834421     0.1076E+03   0.02558  -0.06396
     685.00   3.835690     0.1047E+03   0.01369  -0.03423
     687.00   3.836957     0.1074E+03   0.02467  -0.06168
     689.00   3.838219     0.1104E+03   0.03680  -0.09200
     691.00   3.839478     0.1118E+03   0.04206  -0.10516
     693.00   3.840733     0.1113E+03   0.04036  -0.10089
     695.00   3.841985     0.1127E+03   0.04562  -0.11405
     697.00   3.843233     0.1160E+03   0.05829  -0.14574
     699.00   3.844477     0.1167E+03   0.06089  -0.15222
     701.00   3.845718     0.1169E+03   0.06157  -0.15393
     703.00   3.846955     0.1189E+03   0.06877  -0.17192
     705.00   3.848189     0.1170E+03   0.06192  -0.15480
     707.00   3.849419     0.1099E+03   0.03465  -0.08662
     709.00   3.850646     0.1020E+03   0.00223  -0.00559
     711.00   3.851870     0.9722E+02  -0.01855   0.04638
     713.00   3.853090     0.9402E+02  -0.03310   0.08274
     715.00   3.854306     0.9346E+02  -0.03571   0.08927
     717.00   3.855519     0.9569E+02  -0.02544   0.06361
     719.00   3.856729     0.9369E+02  -0.03461   0.08652
     721.00   3.857935     0.9717E+02  -0.01879   0.04696
     723.00   3.859138     0.1013E+03  -0.00067   0.00168
     725.00   3.860338     0.1035E+03   0.00845  -0.02112
     727.00   3.861534     0.1056E+03   0.01730  -0.04325
     729.00   3.862728     0.1062E+03   0.02001  -0.05002
     731.00   3.863917     0.1127E+03   0.04565  -0.11414
     733.00   3.865104     0.1133E+03   0.04804  -0.12009
     735.00   3.866287     0.1180E+03   0.06544  -0.16359
     737.00   3.867467     0.1237E+03   0.08600  -0.21500
     739.00   3.868644     0.1213E+03   0.07756  -0.19389
     741.00   3.869818     0.1250E+03   0.09049  -0.22622
     743.00   3.870989     0.1292E+03   0.10489  -0.26223
     745.00   3.872156     0.1280E+03   0.10098  -0.25244
     747.00   3.873321     0.1347E+03   0.12305  -0.30761
     749.00   3.874482     0.1344E+03   0.12215  -0.30539
     751.00   3.875640     0.1359E+03   0.12691  -0.31727
     753.00   3.876795     0.1408E+03   0.14218  -0.35546
     755.00   3.877947     0.1426E+03   0.14788  -0.36971
     757.00   3.879096     0.1437E+03   0.15125  -0.37814
     759.00   3.880242     0.1361E+03   0.12763  -0.31909
     761.00   3.881385     0.1295E+03   0.10602  -0.26504
     763.00   3.882524     0.1218E+03   0.07926  -0.19815
     765.00   3.883662     0.1138E+03   0.04965  -0.12411
     767.00   3.884795     0.1048E+03   0.01390  -0.03475
     769.00   3.885926     0.1072E+03   0.02378  -0.05946
     771.00   3.887054     0.1052E+03   0.01590  -0.03975
     773.00   3.888180     0.1053E+03   0.01623  -0.04057
     775.00   3.889302     0.1047E+03   0.01368  -0.03420
     777.00   3.890421     0.1067E+03   0.02177  -0.05442
     779.00   3.891537     0.1079E+03   0.02663  -0.06658
     781.00   3.892651     0.1082E+03   0.02781  -0.06954
     783.00   3.893762     0.1081E+03   0.02768  -0.06920
     785.00   3.894870     0.1063E+03   0.02038  -0.05094
     787.00   3.895975     0.1093E+03   0.03244  -0.08109
     789.00   3.897077     0.1089E+03   0.03053  -0.07633
     791.00   3.898176     0.1055E+03   0.01699  -0.04248
     793.00   3.899273     0.1073E+03   0.02416  -0.06040
     795.00   3.900367     0.1070E+03   0.02324  -0.05809
     797.00   3.901458     0.1112E+03   0.03972  -0.09930
     799.00   3.902547     0.1117E+03   0.04178  -0.10445
     801.00   3.903632     0.1155E+03   0.05614  -0.14036
     803.00   3.904716     0.1172E+03   0.06251  -0.15627
     805.00   3.905796     0.1174E+03   0.06336  -0.15840
     807.00   3.906873     0.1228E+03   0.08284  -0.20710
     809.00   3.907948     0.1230E+03   0.08362  -0.20905
     811.00   3.909021     0.1257E+03   0.09299  -0.23248
     813.00   3.910090     0.1328E+03   0.11703  -0.29259
     815.00   3.911158     0.1372E+03   0.13108  -0.32770
     817.00   3.912222     0.1398E+03   0.13919  -0.34798
     819.00   3.913284     0.1376E+03   0.13217  -0.33043
     821.00   3.914343     0.1278E+03   0.10023  -0.25058
     823.00   3.915400     0.1285E+03   0.10242  -0.25605
     825.00   3.916454     0.1276E+03   0.09960  -0.24901
     827.00   3.917506     0.1282E+03   0.10161  -0.25402
     829.00   3.918555     0.1261E+03   0.09445  -0.23613
     831.00   3.919601     0.1211E+03   0.07678  -0.19195
     833.00   3.920645     0.1197E+03   0.07181  -0.17953
     835.00   3.921686     0.1193E+03   0.07031  -0.17579
     837.00   3.922725     0.1205E+03   0.07466  -0.18665
     839.00   3.923762     0.1166E+03   0.06022  -0.15055
     841.00   3.924796     0.1207E+03   0.07536  -0.18840
     843.00   3.925828     0.1151E+03   0.05470  -0.13676
     845.00   3.926857     0.1064E+03   0.02076  -0.05189
     847.00   3.927883     0.1063E+03   0.02015  -0.05037
     849.00   3.928908     0.1080E+03   0.02717  -0.06791
     851.00   3.929929     0.1031E+03   0.00684  -0.01711
     853.00   3.930949     0.1070E+03   0.02322  -0.05806
     855.00   3.931966     0.1008E+03  -0.00285   0.00713
     857.00   3.932981     0.1134E+03   0.04819  -0.12047
     859.00   3.933993     0.1129E+03   0.04632  -0.11580
     861.00   3.935003     0.1162E+03   0.05871  -0.14676
     863.00   3.936011     0.1194E+03   0.07072  -0.17680
     865.00   3.937016     0.1201E+03   0.07326  -0.18314
     867.00   3.938019     0.1095E+03   0.03308  -0.08270
     869.00   3.939020     0.1201E+03   0.07311  -0.18276
     871.00   3.940018     0.1257E+03   0.09289  -0.23223
     873.00   3.941014     0.1277E+03   0.09996  -0.24990
     875.00   3.942008     0.1276E+03   0.09960  -0.24899
     877.00   3.943000     0.1295E+03   0.10588  -0.26470
     879.00   3.943989     0.1355E+03   0.12554  -0.31385
     881.00   3.944976     0.1344E+03   0.12198  -0.30495
     883.00   3.945961     0.1361E+03   0.12748  -0.31871
     885.00   3.946943     0.1317E+03   0.11327  -0.28317
     887.00   3.947924     0.1234E+03   0.08515  -0.21287
     889.00   3.948902     0.1227E+03   0.08267  -0.20668
     891.00   3.949878     0.1250E+03   0.09072  -0.22681
     893.00   3.950851     0.1236E+03   0.08556  -0.21389
     895.00   3.951823     0.1249E+03   0.09020  -0.22550
     897.00   3.952792     0.1255E+03   0.09221  -0.23054
     899.00   3.953760     0.1260E+03   0.09416  -0.23541
     901.00   3.954725     0.1245E+03   0.08893  -0.22232
     903.00   3.955688     0.1313E+03   0.11197  -0.27992
     905.00   3.956649     0.1374E+03   0.13176  -0.32941
     907.00   3.957607     0.1407E+03   0.14211  -0.35527
     909.00   3.958564     0.1413E+03   0.14394  -0.35984
     911.00   3.959518     0.1441E+03   0.15248  -0.38120
     913.00   3.960471     0.1466E+03   0.15967  -0.39918
     915.00   3.961421     0.1457E+03   0.15700  -0.39250
     917.00   3.962369     0.1462E+03   0.15856  -0.39640
     919.00   3.963315     0.1481E+03   0.16432  -0.41079
     921.00   3.964260     0.1384E+03   0.13472  -0.33679
     923.00   3.965202     0.1350E+03   0.12392  -0.30980
     925.00   3.966142     0.1320E+03   0.11432  -0.28580
     927.00   3.967080     0.1354E+03   0.12538  -0.31346
     929.00   3.968016     0.1290E+03   0.10425  -0.26062
     931.00   3.968950     0.1296E+03   0.10634  -0.26586
     933.00   3.969882     0.1320E+03   0.11432  -0.28580
     935.00   3.970812     0.1321E+03   0.11451  -0.28626
     937.00   3.971740     0.1281E+03   0.10133  -0.25332
     939.00   3.972666     0.1329E+03   0.11735  -0.29338
     941.00   3.973590     0.1327E+03   0.11645  -0.29113
     943.00   3.974512     0.1356E+03   0.12579  -0.31449
     945.00   3.975432     0.1352E+03   0.12454  -0.31134
     947.00   3.976350     0.1399E+03   0.13935  -0.34838
     949.00   3.977266     0.1411E+03   0.14328  -0.35820
     951.00   3.978180     0.1342E+03   0.12136  -0.30340
     953.00   3.979093     0.1383E+03   0.13458  -0.33645
     955.00   3.980003     0.1379E+03   0.13331  -0.33327
     957.00   3.980912     0.1404E+03   0.14116  -0.35290
     959.00   3.981819     0.1421E+03   0.14631  -0.36577
     961.00   3.982723     0.1409E+03   0.14261  -0.35652
     963.00   3.983626     0.1437E+03   0.15108  -0.37769
     965.00   3.984527     0.1421E+03   0.14616  -0.36541
     967.00   3.985426     0.1430E+03   0.14896  -0.37241
     969.00   3.986324     0.1445E+03   0.15355  -0.38387
     971.00   3.987219     0.1407E+03   0.14210  -0.35525
     973.00   3.988113     0.1384E+03   0.13471  -0.33677
     975.00   3.989005     0.1385E+03   0.13510  -0.33774
     977.00   3.989895     0.1397E+03   0.13886  -0.34714
     979.00   3.990783     0.1388E+03   0.13602  -0.34006
     981.00   3.991669     0.1421E+03   0.14627  -0.36566
     983.00   3.992553     0.1406E+03   0.14159  -0.35396
     985.00   3.993436     0.1415E+03   0.14443  -0.36107
     987.00   3.994317     0.1409E+03   0.14246  -0.35615
     989.00   3.995196     0.1409E+03   0.14247  -0.35618
     991.00   3.996074     0.1411E+03   0.14311  -0.35776
     993.00   3.996949     0.1425E+03   0.14758  -0.36895
     995.00   3.997823     0.1438E+03   0.15152  -0.37880
     997.00   3.998695     0.1441E+03   0.15238  -0.38096
     999.00   3.999566     0.1439E+03   0.15172  -0.37931
    1003.00   4.001301     0.1461E+03   0.15822  -0.39555
    1008.00   4.003461     0.1463E+03   0.15903  -0.39759
    1013.00   4.005610     0.1516E+03   0.17424  -0.43560
    1018.00   4.007748     0.1499E+03   0.16949  -0.42372
    1023.00   4.009875     0.1524E+03   0.17676  -0.44191
    1028.00   4.011993     0.1538E+03   0.18055  -0.45138
    1033.00   4.014100     0.1541E+03   0.18157  -0.45392
    1038.00   4.016197     0.1538E+03   0.18053  -0.45132
    1043.00   4.018284     0.1556E+03   0.18558  -0.46394
    1048.00   4.020361     0.1553E+03   0.18479  -0.46198
    1053.00   4.022429     0.1501E+03   0.17004  -0.42511
    1058.00   4.024486     0.1451E+03   0.15529  -0.38822
    1063.00   4.026533     0.1438E+03   0.15146  -0.37865
    1068.00   4.028571     0.1460E+03   0.15811  -0.39527
    1073.00   4.030600     0.1488E+03   0.16628  -0.41570
    1078.00   4.032619     0.1487E+03   0.16599  -0.41498
    1083.00   4.034628     0.1472E+03   0.16166  -0.40415
    1088.00   4.036629     0.1463E+03   0.15882  -0.39706
    1093.00   4.038620     0.1457E+03   0.15722  -0.39304
    1098.00   4.040603     0.1437E+03   0.15127  -0.37819
    1103.00   4.042576     0.1432E+03   0.14950  -0.37375
    1108.00   4.044539     0.1361E+03   0.12738  -0.31846
    1113.00   4.046495     0.1379E+03   0.13315  -0.33288
    1118.00   4.048442     0.1379E+03   0.13316  -0.33290
    1123.00   4.050380     0.1390E+03   0.13661  -0.34152
    1128.00   4.052309     0.1399E+03   0.13949  -0.34873
    1133.00   4.054230     0.1403E+03   0.14079  -0.35197
    1138.00   4.056142     0.1406E+03   0.14175  -0.35436
    1143.00   4.058046     0.1405E+03   0.14121  -0.35302
    1148.00   4.059942     0.1419E+03   0.14558  -0.36395
    1153.00   4.061830     0.1424E+03   0.14730  -0.36824
    1158.00   4.063708     0.1419E+03   0.14575  -0.36438
    1163.00   4.065579     0.1411E+03   0.14306  -0.35765
    1168.00   4.067443     0.1413E+03   0.14376  -0.35941
    1173.00   4.069298     0.1407E+03   0.14196  -0.35491
    1178.00   4.071145     0.1376E+03   0.13227  -0.33067
    1183.00   4.072985     0.1350E+03   0.12417  -0.31043
    1188.00   4.074817     0.1336E+03   0.11958  -0.29895
    1193.00   4.076640     0.1356E+03   0.12597  -0.31491
    1198.00   4.078457     0.1334E+03   0.11877  -0.29692
    1203.00   4.080266     0.1363E+03   0.12828  -0.32069
    1208.00   4.082067     0.1363E+03   0.12829  -0.32072
    1213.00   4.083861     0.1370E+03   0.13033  -0.32582
    1218.00   4.085648     0.1374E+03   0.13169  -0.32922
    1223.00   4.087426     0.1371E+03   0.13076  -0.32689
    1228.00   4.089198     0.1366E+03   0.12924  -0.32310
    1233.00   4.090963     0.1361E+03   0.12748  -0.31869
    1238.00   4.092721     0.1360E+03   0.12715  -0.31789
    1243.00   4.094471     0.1321E+03   0.11457  -0.28642
    1248.00   4.096214     0.1329E+03   0.11720  -0.29301
    1253.00   4.097951     0.1326E+03   0.11625  -0.29062
    1258.00   4.099681     0.1310E+03   0.11092  -0.27729
    1263.00   4.101403     0.1313E+03   0.11207  -0.28017
    1268.00   4.103119     0.1311E+03   0.11130  -0.27826
    1273.00   4.104828     0.1308E+03   0.11021  -0.27552
    1278.00   4.106531     0.1314E+03   0.11223  -0.28058
    1283.00   4.108227     0.1293E+03   0.10532  -0.26330
    1288.00   4.109916     0.1303E+03   0.10869  -0.27173
    1293.00   4.111598     0.1296E+03   0.10619  -0.26547
    1298.00   4.113275     0.1307E+03   0.10993  -0.27483
    1303.00   4.114944     0.1297E+03   0.10652  -0.26630
    1308.00   4.116608     0.1296E+03   0.10635  -0.26586
    1313.00   4.118265     0.1274E+03   0.09868  -0.24671
    1318.00   4.119915     0.1267E+03   0.09658  -0.24146
    1323.00   4.121560     0.1263E+03   0.09510  -0.23775
    1328.00   4.123198     0.1245E+03   0.08892  -0.22229
    1333.00   4.124830     0.1243E+03   0.08806  -0.22014
    1338.00   4.126456     0.1230E+03   0.08362  -0.20906
    1343.00   4.128076     0.1227E+03   0.08255  -0.20637
    1348.00   4.129690     0.1215E+03   0.07831  -0.19578
    1353.00   4.131298     0.1206E+03   0.07506  -0.18764
    1358.00   4.132900     0.1189E+03   0.06883  -0.17208
    1363.00   4.134496     0.1187E+03   0.06825  -0.17063
    1368.00   4.136086     0.1197E+03   0.07165  -0.17913
    1373.00   4.137671     0.1205E+03   0.07466  -0.18665
    1378.00   4.139249     0.1207E+03   0.07555  -0.18887
    1383.00   4.140822     0.1208E+03   0.07569  -0.18922
    1388.00   4.142389     0.1197E+03   0.07173  -0.17933
    1393.00   4.143951     0.1033E+03   0.00793  -0.01983
    1398.00   4.145507     0.1047E+03   0.01348  -0.03369
    1403.00   4.147058     0.1044E+03   0.01258  -0.03144
    1408.00   4.148602     0.1054E+03   0.01648  -0.04119
    1413.00   4.150142     0.1049E+03   0.01462  -0.03654
    1418.00   4.151676     0.1059E+03   0.01874  -0.04685
    1423.00   4.153205     0.1057E+03   0.01795  -0.04486
    1428.00   4.154728     0.1052E+03   0.01581  -0.03952
    1433.00   4.156246     0.1073E+03   0.02444  -0.06110
    1438.00   4.157759     0.1082E+03   0.02787  -0.06967
    1443.00   4.159266     0.1072E+03   0.02396  -0.05989
    1448.00   4.160769     0.1090E+03   0.03123  -0.07808
    1453.00   4.162266     0.1089E+03   0.03056  -0.07641
    1457.00   4.163460     0.1096E+03   0.03354  -0.08386
    1462.00   4.164948     0.1018E+03   0.00136  -0.00340
    1468.00   4.166726     0.1031E+03   0.00700  -0.01750
    1473.00   4.168202     0.1033E+03   0.00763  -0.01908
    1478.00   4.169674     0.1046E+03   0.01336  -0.03339
    1483.00   4.171141     0.1058E+03   0.01809  -0.04522
    1488.00   4.172603     0.1059E+03   0.01859  -0.04647
    1493.00   4.174060     0.1086E+03   0.02940  -0.07350
    1498.00   4.175512     0.1088E+03   0.03028  -0.07571
    1503.00   4.176959     0.1083E+03   0.02836  -0.07091
    1508.00   4.178401     0.1094E+03   0.03283  -0.08207
    1513.00   4.179839     0.1114E+03   0.04069  -0.10174
    1518.00   4.181272     0.1124E+03   0.04438  -0.11095
    1523.00   4.182700     0.1129E+03   0.04636  -0.11591
    1528.00   4.184123     0.1140E+03   0.05049  -0.12624
    1533.00   4.185542     0.1142E+03   0.05142  -0.12856
    1538.00   4.186956     0.1100E+03   0.03520  -0.08799
    1543.00   4.188366     0.1119E+03   0.04255  -0.10637
    1548.00   4.189771     0.1128E+03   0.04587  -0.11467
    1553.00   4.191172     0.1129E+03   0.04636  -0.11589
    1558.00   4.192567     0.1069E+03   0.02282  -0.05704
    1563.00   4.193959     0.1082E+03   0.02798  -0.06996
    1568.00   4.195346     0.1098E+03   0.03432  -0.08581
    1573.00   4.196729     0.1130E+03   0.04675  -0.11688
    1578.00   4.198107     0.9808E+02  -0.01475   0.03688
    1583.00   4.199481     0.1033E+03   0.00769  -0.01923
    1588.00   4.200850     0.1061E+03   0.01949  -0.04871
    1593.00   4.202216     0.1101E+03   0.03559  -0.08897
    1598.00   4.203577     0.1133E+03   0.04773  -0.11932
    1605.00   4.205475     0.1042E+03   0.01172  -0.02930
    1615.00   4.208173     0.1103E+03   0.03619  -0.09048
    1625.00   4.210854     0.1031E+03   0.00673  -0.01682
    1635.00   4.213518     0.1102E+03   0.03596  -0.08990
    1645.00   4.216166     0.1040E+03   0.01055  -0.02637
    1655.00   4.218798     0.1086E+03   0.02932  -0.07329
    1665.00   4.221415     0.1040E+03   0.01060  -0.02649
    1675.00   4.224015     0.1078E+03   0.02623  -0.06559
    1685.00   4.226600     0.1098E+03   0.03438  -0.08595
    1695.00   4.229170     0.1064E+03   0.02048  -0.05120
    1705.00   4.231725     0.1063E+03   0.02041  -0.05102
    1715.00   4.234264     0.1036E+03   0.00901  -0.02252
    1725.00   4.236789     0.1024E+03   0.00405  -0.01012
    1735.00   4.239300     0.9874E+02  -0.01184   0.02959
    1745.00   4.241796     0.9749E+02  -0.01735   0.04337
    1755.00   4.244277     0.9623E+02  -0.02299   0.05748
    1765.00   4.246745     0.9314E+02  -0.03719   0.09299
    1775.00   4.249198     0.9039E+02  -0.05021   0.12553
    1785.00   4.251638     0.8848E+02  -0.05949   0.14873
    1795.00   4.254065     0.8554E+02  -0.07415   0.18539
    1805.00   4.256477     0.8312E+02  -0.08662   0.21656
    1815.00   4.258877     0.8165E+02  -0.09434   0.23586
    1825.00   4.261263     0.8036E+02  -0.10127   0.25318
    1835.00   4.263636     0.7910E+02  -0.10816   0.27039
    1845.00   4.265996     0.7743E+02  -0.11739   0.29347
    1855.00   4.268344     0.7614E+02  -0.12469   0.31172
    1865.00   4.270679     0.7395E+02  -0.13736   0.34340
    1875.00   4.273001     0.7256E+02  -0.14560   0.36399
    1885.00   4.275311     0.7187E+02  -0.14980   0.37449
    1895.00   4.277609     0.6999E+02  -0.16130   0.40325
    1905.00   4.279895     0.7008E+02  -0.16075   0.40187
    1915.00   4.282169     0.6890E+02  -0.16808   0.42020
    1925.00   4.284431     0.6805E+02  -0.17351   0.43378
    1935.00   4.286681     0.6656E+02  -0.18310   0.45776
    1945.00   4.288919     0.6516E+02  -0.19232   0.48081
    1955.00   4.291147     0.6422E+02  -0.19865   0.49661
    1965.00   4.293363     0.6274E+02  -0.20877   0.52193
    1975.00   4.295567     0.6085E+02  -0.22203   0.55507
    1985.00   4.297760     0.5993E+02  -0.22864   0.57160
    1995.00   4.299943     0.5925E+02  -0.23360   0.58400
    2005.00   4.302114     0.5880E+02  -0.23694   0.59234
    2015.00   4.304275     0.5802E+02  -0.24273   0.60683
    2025.00   4.306425     0.5695E+02  -0.25083   0.62707
    2035.00   4.308564     0.5650E+02  -0.25428   0.63570
    2045.00   4.310693     0.5636E+02  -0.25535   0.63838
    2055.00   4.312812     0.5575E+02  -0.26011   0.65027
    2065.00   4.314920     0.5517E+02  -0.26459   0.66146
    2075.00   4.317018     0.5481E+02  -0.26747   0.66869
    2085.00   4.319106     0.5430E+02  -0.27150   0.67875
    2095.00   4.321184     0.5369E+02  -0.27642   0.69104
    2105.00   4.323252     0.5349E+02  -0.27801   0.69504
    2115.00   4.325311     0.5284E+02  -0.28338   0.70844
    2125.00   4.327359     0.5228E+02  -0.28801   0.72002
    2135.00   4.329398     0.5193E+02  -0.29092   0.72730
    2145.00   4.331428     0.5136E+02  -0.29566   0.73914
    2155.00   4.333447     0.5074E+02  -0.30096   0.75239
    2165.00   4.335458     0.5003E+02  -0.30710   0.76774
    2175.00   4.337460     0.4935E+02  -0.31303   0.78257
    2185.00   4.339452     0.4882E+02  -0.31770   0.79424
    2195.00   4.341434     0.4827E+02  -0.32266   0.80665
    2205.00   4.343409     0.4731E+02  -0.33139   0.82846
    2215.00   4.345374     0.4704E+02  -0.33386   0.83464
    2225.00   4.347330     0.4611E+02  -0.34254   0.85635
    2235.00   4.349277     0.4552E+02  -0.34808   0.87020
    2245.00   4.351216     0.4490E+02  -0.35409   0.88523
    2255.00   4.353147     0.4435E+02  -0.35938   0.89846
    2265.00   4.355068     0.4352E+02  -0.36765   0.91914
    2275.00   4.356981     0.4315E+02  -0.37132   0.92829
    2285.00   4.358886     0.4235E+02  -0.37949   0.94871
    2295.00   4.360783     0.3294E+02  -0.48853   1.22133
    2305.00   4.362671     0.3720E+02  -0.43578   1.08945
    2315.00   4.364551     0.3717E+02  -0.43616   1.09040
    2325.00   4.366423     0.3067E+02  -0.51963   1.29907
    2335.00   4.368287     0.3400E+02  -0.47488   1.18720
    2345.00   4.370143     0.3030E+02  -0.52483   1.31209
    2355.00   4.371991     0.2840E+02  -0.55304   1.38261
    2365.00   4.373831     0.3104E+02  -0.51439   1.28598
    2375.00   4.375664     0.2840E+02  -0.55304   1.38261
    2385.00   4.377488     0.2660E+02  -0.58152   1.45379
    2395.00   4.379306     0.2852E+02  -0.55118   1.37796
    2405.00   4.381115     0.2682E+02  -0.57779   1.44449
    2415.00   4.382917     0.2461E+02  -0.61524   1.53811
    2425.00   4.384712     0.2608E+02  -0.58997   1.47491
    2435.00   4.386499     0.2426E+02  -0.62144   1.55360
    2445.00   4.388279     0.2436E+02  -0.61971   1.54929
    2455.00   4.390052     0.2302E+02  -0.64428   1.61070
    2465.00   4.391817     0.2252E+02  -0.65382   1.63455
    2475.00   4.393575     0.2166E+02  -0.67062   1.67654
    2485.00   4.395327     0.1818E+02  -0.74662   1.86655
    2495.00   4.397071     0.1674E+02  -0.78254   1.95636
    2505.00   4.398808     0.1696E+02  -0.77690   1.94225
    2515.00   4.400538     0.1620E+02  -0.79673   1.99182
    2525.00   4.402262     0.1655E+02  -0.78749   1.96872
    2535.00   4.403978     0.1656E+02  -0.78715   1.96787
    2545.00   4.405688     0.1641E+02  -0.79114   1.97786
    2555.00   4.407391     0.1648E+02  -0.78939   1.97347
    2565.00   4.409087     0.1674E+02  -0.78267   1.95668
    2575.00   4.410777     0.1701E+02  -0.77553   1.93883
    2585.00   4.412460     0.1681E+02  -0.78065   1.95162
    2595.00   4.414137     0.1687E+02  -0.77920   1.94800
    2605.00   4.415808     0.1689E+02  -0.77872   1.94681
    2615.00   4.417472     0.1666E+02  -0.78477   1.96193
    2625.00   4.419129     0.1644E+02  -0.79033   1.97583
    2635.00   4.420781     0.1642E+02  -0.79091   1.97728
    2645.00   4.422426     0.1628E+02  -0.79475   1.98687
    2655.00   4.424065     0.1610E+02  -0.79938   1.99845
    2665.00   4.425697     0.1587E+02  -0.80565   2.01413
    2675.00   4.427324     0.1600E+02  -0.80213   2.00532
    2685.00   4.428945     0.1583E+02  -0.80672   2.01680
    2695.00   4.430559     0.1556E+02  -0.81420   2.03550
    2705.00   4.432167     0.1555E+02  -0.81470   2.03674
    2715.00   4.433770     0.1541E+02  -0.81848   2.04619
    2725.00   4.435367     0.1532E+02  -0.82118   2.05294
    2735.00   4.436957     0.1508E+02  -0.82797   2.06993
    2745.00   4.438542     0.1504E+02  -0.82913   2.07284
    2755.00   4.440122     0.1495E+02  -0.83170   2.07925
    2765.00   4.441695     0.1476E+02  -0.83711   2.09277
    2775.00   4.443263     0.1457E+02  -0.84293   2.10732
    2785.00   4.444825     0.1451E+02  -0.84468   2.11169
    2795.00   4.446382     0.1444E+02  -0.84684   2.11709
    2805.00   4.447933     0.1429E+02  -0.85121   2.12802
    2815.00   4.449478     0.1412E+02  -0.85647   2.14117
    2825.00   4.451018     0.1403E+02  -0.85933   2.14833
    2835.00   4.452553     0.1395E+02  -0.86163   2.15407
    2845.00   4.454082     0.1380E+02  -0.86638   2.16595
    2855.00   4.455606     0.1368E+02  -0.87036   2.17589
    2865.00   4.457125     0.1356E+02  -0.87390   2.18476
    2875.00   4.458638     0.1346E+02  -0.87738   2.19346
    2885.00   4.460146     0.1333E+02  -0.88135   2.20338
    2895.00   4.461648     0.1322E+02  -0.88510   2.21276
    2905.00   4.463146     0.1309E+02  -0.88927   2.22317
    2915.00   4.464639     0.1299E+02  -0.89270   2.23174
    2925.00   4.466126     0.1280E+02  -0.89916   2.24790
    2935.00   4.467608     0.1276E+02  -0.90059   2.25147
    2945.00   4.469085     0.1262E+02  -0.90510   2.26274
    2955.00   4.470557     0.1251E+02  -0.90889   2.27223
    2965.00   4.472025     0.1243E+02  -0.91196   2.27989
    2975.00   4.473487     0.1232E+02  -0.91579   2.28947
    2985.00   4.474944     0.1218E+02  -0.92053   2.30132
    2995.00   4.476397     0.1207E+02  -0.92476   2.31190
    3005.00   4.477844     0.1199E+02  -0.92750   2.31876
    3015.00   4.479287     0.1196E+02  -0.92843   2.32108
    3025.00   4.480725     0.1189E+02  -0.93105   2.32762
    3035.00   4.482159     0.1183E+02  -0.93323   2.33307
    3045.00   4.483587     0.1181E+02  -0.93398   2.33494
    3055.00   4.485011     0.1175E+02  -0.93619   2.34047
    3065.00   4.486430     0.1170E+02  -0.93807   2.34519
    3075.00   4.487845     0.1168E+02  -0.93893   2.34732
    3085.00   4.489255     0.1161E+02  -0.94135   2.35337
    3095.00   4.490661     0.1160E+02  -0.94175   2.35438
    3105.00   4.492062     0.1158E+02  -0.94258   2.35646
    3115.00   4.493458     0.1148E+02  -0.94644   2.36610
    3125.00   4.494850     0.1146E+02  -0.94708   2.36771
    3135.00   4.496238     0.1141E+02  -0.94906   2.37264
    3145.00   4.497621     0.1135E+02  -0.95132   2.37829
    3155.00   4.499000     0.1128E+02  -0.95395   2.38487
    3165.00   4.500374     0.1121E+02  -0.95677   2.39193
    3175.00   4.501744     0.1118E+02  -0.95800   2.39499
    3185.00   4.503109     0.1114E+02  -0.95955   2.39887
    3195.00   4.504471     0.1111E+02  -0.96057   2.40144
    3210.00   4.506505     0.1103E+02  -0.96364   2.40910
    3230.00   4.509202     0.1092E+02  -0.96807   2.42016
    3250.00   4.511883     0.1083E+02  -0.97179   2.42946
    3270.00   4.514548     0.1070E+02  -0.97693   2.44233
    3290.00   4.517196     0.1055E+02  -0.98318   2.45796
    3310.00   4.519828     0.1045E+02  -0.98721   2.46803
    3330.00   4.522444     0.1030E+02  -0.99328   2.48321
    3350.00   4.525045     0.1018E+02  -0.99858   2.49646
    3370.00   4.527630     0.1003E+02  -1.00495   2.51237
    3390.00   4.530200     0.9866E+01  -1.01217   2.53044
    3410.00   4.532754     0.9700E+01  -1.01955   2.54887
    3430.00   4.535294     0.9562E+01  -1.02576   2.56441
    3450.00   4.537819     0.9401E+01  -1.03313   2.58281
    3470.00   4.540329     0.9238E+01  -1.04076   2.60190
    3490.00   4.542826     0.9088E+01  -1.04786   2.61965
    3510.00   4.545307     0.8938E+01  -1.05510   2.63776
    3530.00   4.547775     0.8774E+01  -1.06315   2.65786
    3550.00   4.550228     0.8629E+01  -1.07034   2.67584
    3570.00   4.552669     0.8475E+01  -1.07820   2.69550
    3590.00   4.555095     0.8330E+01  -1.08566   2.71416
    3610.00   4.557508     0.8192E+01  -1.09292   2.73231
    3630.00   4.559907     0.8042E+01  -1.10097   2.75242
    3650.00   4.562293     0.7888E+01  -1.10935   2.77337
    3670.00   4.564666     0.7746E+01  -1.11723   2.79307
    3690.00   4.567026     0.7592E+01  -1.12598   2.81496
    3710.00   4.569374     0.7449E+01  -1.13424   2.83561
    3730.00   4.571709     0.7331E+01  -1.14115   2.85288
    3750.00   4.574031     0.7179E+01  -1.15027   2.87569
    3770.00   4.576342     0.7069E+01  -1.15697   2.89242
    3790.00   4.578639     0.6931E+01  -1.16551   2.91377
    3810.00   4.580925     0.6807E+01  -1.17337   2.93344
    3830.00   4.583199     0.6691E+01  -1.18084   2.95210
    3850.00   4.585461     0.6570E+01  -1.18876   2.97191
    3870.00   4.587711     0.6434E+01  -1.19786   2.99466
    3890.00   4.589950     0.6320E+01  -1.20562   3.01406
    3910.00   4.592176     0.6207E+01  -1.21345   3.03362
    3930.00   4.594393     0.6091E+01  -1.22161   3.05402
    3950.00   4.596597     0.5963E+01  -1.23085   3.07713
    3970.00   4.598790     0.5857E+01  -1.23864   3.09660
    3990.00   4.600973     0.5732E+01  -1.24803   3.12008
    4010.00   4.603145     0.5637E+01  -1.25524   3.13810
    4030.00   4.605305     0.5540E+01  -1.26278   3.15696
    4050.00   4.607455     0.5431E+01  -1.27146   3.17864
    4070.00   4.609594     0.5333E+01  -1.27932   3.19830
    4090.00   4.611723     0.5235E+01  -1.28737   3.21842
    4110.00   4.613842     0.5148E+01  -1.29466   3.23665
    4130.00   4.615950     0.5065E+01  -1.30171   3.25427
    4150.00   4.618048     0.4977E+01  -1.30934   3.27334
    4170.00   4.620136     0.4895E+01  -1.31659   3.29147
    4190.00   4.622214     0.4809E+01  -1.32423   3.31057
    4210.00   4.624282     0.4725E+01  -1.33190   3.32975
    4230.00   4.626340     0.4661E+01  -1.33783   3.34458
    4250.00   4.628389     0.4578E+01  -1.34567   3.36417
    4270.00   4.630428     0.4508E+01  -1.35229   3.38073
    4290.00   4.632457     0.4348E+01  -1.36799   3.41998
    4310.00   4.634478     0.4179E+01  -1.38529   3.46322
    4330.00   4.636488     0.4146E+01  -1.38872   3.47179
    4350.00   4.638489     0.4013E+01  -1.40289   3.50722
    4370.00   4.640481     0.3921E+01  -1.41293   3.53233
    4390.00   4.642465     0.3847E+01  -1.42114   3.55286
    4410.00   4.644439     0.3739E+01  -1.43357   3.58392
    4430.00   4.646404     0.3681E+01  -1.44037   3.60091
    4450.00   4.648360     0.3620E+01  -1.44767   3.61917
    4470.00   4.650308     0.3527E+01  -1.45889   3.64723
    4490.00   4.652246     0.3498E+01  -1.46244   3.65610
    4510.00   4.654177     0.3427E+01  -1.47146   3.67866
    4530.00   4.656098     0.3357E+01  -1.48033   3.70083
    4550.00   4.658011     0.3324E+01  -1.48462   3.71155
    4570.00   4.659916     0.3280E+01  -1.49047   3.72618
    4590.00   4.661813     0.3203E+01  -1.50073   3.75183
    4610.00   4.663701     0.3183E+01  -1.50347   3.75868
    4630.00   4.665581     0.3128E+01  -1.51104   3.77761
    4650.00   4.667453     0.3091E+01  -1.51624   3.79061
    4670.00   4.669317     0.3060E+01  -1.52055   3.80137
    4690.00   4.671173     0.3008E+01  -1.52809   3.82023
    4710.00   4.673021     0.2960E+01  -1.53496   3.83739
    4730.00   4.674861     0.2943E+01  -1.53752   3.84380
    4750.00   4.676694     0.2888E+01  -1.54579   3.86449
    4770.00   4.678518     0.2849E+01  -1.55168   3.87921
    4790.00   4.680336     0.2817E+01  -1.55655   3.89137
    4810.00   4.682145     0.2760E+01  -1.56535   3.91339
    4830.00   4.683947     0.2747E+01  -1.56744   3.91861
    4850.00   4.685741     0.2702E+01  -1.57458   3.93644
    4870.00   4.687529     0.2657E+01  -1.58196   3.95489
    4890.00   4.689309     0.2620E+01  -1.58803   3.97007
    4910.00   4.691082     0.2587E+01  -1.59353   3.98383
    4930.00   4.692847     0.2549E+01  -1.60003   4.00007
    4950.00   4.694605     0.2509E+01  -1.60682   4.01705
    4970.00   4.696356     0.2484E+01  -1.61111   4.02778
    4990.00   4.698101     0.2450E+01  -1.61716   4.04290
    5010.00   4.699838     0.2417E+01  -1.62300   4.05749
    5030.00   4.701568     0.2385E+01  -1.62884   4.07210
    5050.00   4.703291     0.2344E+01  -1.63643   4.09108
    5070.00   4.705008     0.2320E+01  -1.64092   4.10230
    5090.00   4.706717     0.2289E+01  -1.64675   4.11688
    5110.00   4.708421     0.2253E+01  -1.65354   4.13385
    5130.00   4.710117     0.2232E+01  -1.65761   4.14402
    5150.00   4.711807     0.2196E+01  -1.66460   4.16151
    5170.00   4.713490     0.2178E+01  -1.66832   4.17079
    5190.00   4.715167     0.2143E+01  -1.67521   4.18803
    5210.00   4.716838     0.2119E+01  -1.68025   4.20061
    5230.00   4.718502     0.2086E+01  -1.68708   4.21771
    5250.00   4.720160     0.2064E+01  -1.69152   4.22879
    5270.00   4.721810     0.2046E+01  -1.69532   4.23830
    5290.00   4.723455     0.2009E+01  -1.70325   4.25813
    5310.00   4.725095     0.1984E+01  -1.70888   4.27220
    5330.00   4.726727     0.1963E+01  -1.71345   4.28362
    5350.00   4.728354     0.1938E+01  -1.71885   4.29714
    5370.00   4.729974     0.1916E+01  -1.72398   4.30995
    5390.00   4.731589     0.1893E+01  -1.72920   4.32301
    5410.00   4.733197     0.1870E+01  -1.73452   4.33629
    5430.00   4.734800     0.1840E+01  -1.74143   4.35359
    5450.00   4.736397     0.1825E+01  -1.74500   4.36250
    5470.00   4.737988     0.1798E+01  -1.75144   4.37860
    5490.00   4.739573     0.1778E+01  -1.75635   4.39087
    5510.00   4.741152     0.1755E+01  -1.76197   4.40493
    5530.00   4.742725     0.1747E+01  -1.76400   4.40999
    5550.00   4.744293     0.1712E+01  -1.77283   4.43207
    5570.00   4.745855     0.1700E+01  -1.77580   4.43950
    5590.00   4.747412     0.1675E+01  -1.78222   4.45555
    5610.00   4.748963     0.1659E+01  -1.78643   4.46608
    5630.00   4.750508     0.1634E+01  -1.79320   4.48299
    5650.00   4.752048     0.1620E+01  -1.79685   4.49212
    5670.00   4.753583     0.1600E+01  -1.80207   4.50519
    5690.00   4.755112     0.1576E+01  -1.80873   4.52182
    5710.00   4.756636     0.1564E+01  -1.81207   4.53017
    5730.00   4.758155     0.1545E+01  -1.81751   4.54378
    5750.00   4.759668     0.1526E+01  -1.82269   4.55672
    5770.00   4.761176     0.1507E+01  -1.82823   4.57057
    5790.00   4.762679     0.1493E+01  -1.83227   4.58068
    5810.00   4.764176     0.1472E+01  -1.83839   4.59598
    5830.00   4.765669     0.1456E+01  -1.84325   4.60812
    5850.00   4.767156     0.1439E+01  -1.84824   4.62060
    5870.00   4.768638     0.1419E+01  -1.85430   4.63576
    5890.00   4.770115     0.1403E+01  -1.85913   4.64783
    5910.00   4.771587     0.1388E+01  -1.86391   4.65978
    5930.00   4.773055     0.1373E+01  -1.86878   4.67195
    5950.00   4.774517     0.1355E+01  -1.87447   4.68616
    5970.00   4.775974     0.1341E+01  -1.87878   4.69694
    5990.00   4.777427     0.1326E+01  -1.88386   4.70965
    6010.00   4.778874     0.1310E+01  -1.88895   4.72236
    6030.00   4.780317     0.1295E+01  -1.89407   4.73518
    6050.00   4.781755     0.1278E+01  -1.89978   4.74946
    6070.00   4.783189     0.1264E+01  -1.90471   4.76177
    6090.00   4.784617     0.1249E+01  -1.90980   4.77450
    6110.00   4.786041     0.1234E+01  -1.91513   4.78782
    6130.00   4.787460     0.1221E+01  -1.91963   4.79908
    6150.00   4.788875     0.1208E+01  -1.92443   4.81106
    6170.00   4.790285     0.1195E+01  -1.92907   4.82267
    6190.00   4.791691     0.1181E+01  -1.93416   4.83541
    6210.00   4.793092     0.1168E+01  -1.93887   4.84717
    6230.00   4.794488     0.1153E+01  -1.94431   4.86078
    6250.00   4.795880     0.1139E+01  -1.94971   4.87428
    6270.00   4.797267     0.1126E+01  -1.95468   4.88671
    6290.00   4.798651     0.1114E+01  -1.95932   4.89830
    6310.00   4.800029     0.1101E+01  -1.96447   4.91117
    6330.00   4.801404     0.1091E+01  -1.96866   4.92165
    6350.00   4.802773     0.1077E+01  -1.97395   4.93489
    6370.00   4.804139     0.1067E+01  -1.97825   4.94563
    6390.00   4.805501     0.1053E+01  -1.98378   4.95945
    6420.00   4.807535     0.1036E+01  -1.99084   4.97709
    6460.00   4.810232     0.1013E+01  -2.00077   5.00193
    6500.00   4.812913     0.9906E+00  -2.01040   5.02600
    6540.00   4.815578     0.9689E+00  -2.02004   5.05009
    6580.00   4.818226     0.9482E+00  -2.02942   5.07356
    6620.00   4.820858     0.9272E+00  -2.03913   5.09783
    6660.00   4.823474     0.9073E+00  -2.04858   5.12144
    6700.00   4.826075     0.8878E+00  -2.05800   5.14499
    6740.00   4.828660     0.8684E+00  -2.06760   5.16899
    6780.00   4.831230     0.8499E+00  -2.07694   5.19235
    6820.00   4.833784     0.8317E+00  -2.08636   5.21591
    6860.00   4.836324     0.8144E+00  -2.09550   5.23876
    6900.00   4.838849     0.7970E+00  -2.10485   5.26212
    6940.00   4.841359     0.7803E+00  -2.11404   5.28511
    6980.00   4.843855     0.7641E+00  -2.12319   5.30797
    7020.00   4.846337     0.7479E+00  -2.13246   5.33115
    7060.00   4.848804     0.7326E+00  -2.14143   5.35358
    7100.00   4.851258     0.7175E+00  -2.15051   5.37627
    7140.00   4.853698     0.7028E+00  -2.15947   5.39866
    7180.00   4.856124     0.6884E+00  -2.16848   5.42121
    7220.00   4.858537     0.6745E+00  -2.17737   5.44342
    7260.00   4.860937     0.6607E+00  -2.18630   5.46575
    7300.00   4.863323     0.6475E+00  -2.19510   5.48776
    7340.00   4.865696     0.6343E+00  -2.20400   5.50999
    7380.00   4.868056     0.6218E+00  -2.21268   5.53170
    7420.00   4.870404     0.6090E+00  -2.22168   5.55419
    7460.00   4.872739     0.5970E+00  -2.23032   5.57580
    7500.00   4.875061     0.5854E+00  -2.23889   5.59722
    7540.00   4.877371     0.5738E+00  -2.24758   5.61895
    7580.00   4.879669     0.5629E+00  -2.25588   5.63969
    7620.00   4.881955     0.5520E+00  -2.26439   5.66097
    7660.00   4.884229     0.5413E+00  -2.27287   5.68217
    7700.00   4.886491     0.5308E+00  -2.28136   5.70340
    7740.00   4.888741     0.5207E+00  -2.28971   5.72427
    7780.00   4.890980     0.5108E+00  -2.29804   5.74511
    7820.00   4.893207     0.5011E+00  -2.30638   5.76595
    7860.00   4.895422     0.4917E+00  -2.31465   5.78662
    7900.00   4.897627     0.4824E+00  -2.32290   5.80725
    7940.00   4.899820     0.4734E+00  -2.33110   5.82775
    7980.00   4.902003     0.4646E+00  -2.33924   5.84810
    8020.00   4.904174     0.4558E+00  -2.34753   5.86882
    8060.00   4.906335     0.4474E+00  -2.35559   5.88897
    8100.00   4.908485     0.4393E+00  -2.36356   5.90891
    8140.00   4.910625     0.4312E+00  -2.37163   5.92908
    8180.00   4.912753     0.4234E+00  -2.37953   5.94882
    8220.00   4.914872     0.4158E+00  -2.38746   5.96866
    8260.00   4.916980     0.4082E+00  -2.39540   5.98849
    8300.00   4.919078     0.4009E+00  -2.40326   6.00816
    8340.00   4.921166     0.3936E+00  -2.41121   6.02803
    8380.00   4.923244     0.3866E+00  -2.41903   6.04759
    8420.00   4.925312     0.3799E+00  -2.42670   6.06674
    8460.00   4.927370     0.3731E+00  -2.43447   6.08618
    8500.00   4.929419     0.3666E+00  -2.44216   6.10540
    8540.00   4.931458     0.3602E+00  -2.44980   6.12450
    8580.00   4.933487     0.3539E+00  -2.45740   6.14351
    8620.00   4.935507     0.3478E+00  -2.46500   6.16250
    8660.00   4.937518     0.3418E+00  -2.47254   6.18134
    8700.00   4.939519     0.3359E+00  -2.48009   6.20023
    8740.00   4.941511     0.3302E+00  -2.48758   6.21895
    8780.00   4.943495     0.3245E+00  -2.49507   6.23768
    8820.00   4.945469     0.3190E+00  -2.50257   6.25642
    8860.00   4.947433     0.3136E+00  -2.50996   6.27489
    8900.00   4.949390     0.3083E+00  -2.51737   6.29342
    8940.00   4.951338     0.3032E+00  -2.52464   6.31161
    8980.00   4.953277     0.2980E+00  -2.53210   6.33026
    9020.00   4.955207     0.2931E+00  -2.53924   6.34811
    9060.00   4.957129     0.2883E+00  -2.54647   6.36616
    9100.00   4.959042     0.2834E+00  -2.55391   6.38479
    9140.00   4.960946     0.2788E+00  -2.56096   6.40241
    9180.00   4.962843     0.2743E+00  -2.56814   6.42034
    9220.00   4.964731     0.2699E+00  -2.57517   6.43792
    9260.00   4.966611     0.2655E+00  -2.58229   6.45572
    9300.00   4.968483     0.2612E+00  -2.58935   6.47337
    9340.00   4.970347     0.2570E+00  -2.59642   6.49106
    9380.00   4.972203     0.2529E+00  -2.60342   6.50855
    9420.00   4.974051     0.2488E+00  -2.61041   6.52603
    9460.00   4.975891     0.2449E+00  -2.61741   6.54353
    9500.00   4.977724     0.2410E+00  -2.62434   6.56084
    9540.00   4.979548     0.2372E+00  -2.63124   6.57810
    9580.00   4.981365     0.2335E+00  -2.63810   6.59524
    9620.00   4.983175     0.2298E+00  -2.64497   6.61244
    9660.00   4.984977     0.2262E+00  -2.65179   6.62947
    9700.00   4.986772     0.2227E+00  -2.65858   6.64644
    9740.00   4.988559     0.2192E+00  -2.66555   6.66387
    9780.00   4.990339     0.2159E+00  -2.67216   6.68041
    9820.00   4.992111     0.2126E+00  -2.67884   6.69709
    9860.00   4.993877     0.2093E+00  -2.68553   6.71383
    9900.00   4.995635     0.2061E+00  -2.69219   6.73047
    9940.00   4.997386     0.2030E+00  -2.69887   6.74717
    9980.00   4.999130     0.1999E+00  -2.70547   6.76369
   10020.00   5.000868     0.1969E+00  -2.71207   6.78017
   20000.00   5.301030     0.1370E-01  -3.86973   9.67433
   40000.00   5.602060     0.8968E-03  -5.05364  12.63409
   60000.00   5.778151     0.1796E-03  -5.75195  14.37987
   80000.00   5.903090     0.5719E-04  -6.24902  15.62255
  100000.00   6.000000     0.2350E-04  -6.63526  16.58816
  120000.00   6.079181     0.1135E-04  -6.95120  17.37799
  140000.00   6.146128     0.6135E-05  -7.21853  18.04633
  160000.00   6.204120     0.3598E-05  -7.45023  18.62558
