age =    8.0    [Fe/H] =   -0.25

wavele(nm) log wave(A)   Hlam       log(Hlam/Hlam(V))  Hlam(mag(V)) 
      89.50   2.951823     0.1229E-12 -15.27966  38.19916
      90.50   2.956649     0.2346E-12 -14.99896  37.49739
      91.50   2.961421     0.3673E-12 -14.80421  37.01053
      92.50   2.966142     0.2830E-09 -11.91748  29.79370
      93.50   2.970812     0.3898E-09 -11.77833  29.44583
      94.50   2.975432     0.5477E-09 -11.63070  29.07674
      95.50   2.980003     0.8087E-09 -11.46141  28.65354
      96.50   2.984527     0.1140E-08 -11.31235  28.28088
      97.50   2.989005     0.1486E-08 -11.19731  27.99327
      98.50   2.993436     0.2063E-08 -11.05466  27.63665
      99.50   2.997823     0.2742E-08 -10.93121  27.32803
     100.50   3.002166     0.3957E-08 -10.77187  26.92967
     101.50   3.006466     0.5245E-08 -10.64949  26.62372
     102.50   3.010724     0.5903E-08 -10.59811  26.49527
     103.50   3.014940     0.9403E-08 -10.39594  25.98984
     104.50   3.019116     0.1264E-07 -10.26756  25.66891
     105.50   3.023252     0.1609E-07 -10.16271  25.40676
     106.50   3.027350     0.2094E-07 -10.04833  25.12082
     107.50   3.031409     0.2772E-07  -9.92646  24.81615
     108.50   3.035430     0.3647E-07  -9.80727  24.51818
     109.50   3.039414     0.4548E-07  -9.71136  24.27840
     110.50   3.043362     0.3678E-06  -8.80361  22.00902
     111.50   3.047275     0.7169E-06  -8.51376  21.28440
     112.50   3.051152     0.1090E-05  -8.33178  20.82945
     113.50   3.054996     0.1627E-05  -8.15773  20.39433
     114.50   3.058805     0.2136E-05  -8.03970  20.09924
     115.50   3.062582     0.2401E-05  -7.98881  19.97203
     116.50   3.066326     0.3181E-05  -7.86662  19.66654
     117.50   3.070038     0.3964E-05  -7.77105  19.42763
     118.50   3.073718     0.3980E-05  -7.76929  19.42322
     119.50   3.077368     0.2708E-05  -7.93650  19.84124
     120.50   3.080987     0.2433E-05  -7.98304  19.95761
     121.50   3.084576     0.4251E-06  -8.74074  21.85186
     122.50   3.088136     0.3140E-05  -7.87228  19.68069
     123.50   3.091667     0.8351E-05  -7.44746  18.61864
     124.50   3.095169     0.1525E-04  -7.18599  17.96497
     125.50   3.098644     0.2125E-04  -7.04177  17.60443
     126.50   3.102091     0.2337E-04  -7.00056  17.50139
     127.50   3.105510     0.3129E-04  -6.87384  17.18459
     128.50   3.108903     0.3952E-04  -6.77236  16.93089
     129.50   3.112270     0.4796E-04  -6.68834  16.72085
     130.50   3.115611     0.5107E-04  -6.66108  16.65270
     131.50   3.118926     0.6628E-04  -6.54782  16.36956
     132.50   3.122216     0.7333E-04  -6.50393  16.25982
     133.50   3.125481     0.8210E-04  -6.45487  16.13718
     134.50   3.128722     0.9712E-04  -6.38189  15.95472
     135.50   3.131939     0.1095E-03  -6.32970  15.82425
     136.50   3.135133     0.1209E-03  -6.28669  15.71674
     137.50   3.138303     0.1297E-03  -6.25627  15.64068
     138.50   3.141450     0.1410E-03  -6.22005  15.55013
     139.50   3.144574     0.1595E-03  -6.16649  15.41622
     140.50   3.147676     0.1874E-03  -6.09650  15.24124
     141.50   3.150756     0.2101E-03  -6.04676  15.11690
     142.50   3.153815     0.2344E-03  -5.99921  14.99802
     143.50   3.156852     0.2687E-03  -5.93996  14.84990
     144.20   3.158965     0.3437E-03  -5.83303  14.58258
     144.70   3.160469     0.3128E-03  -5.87390  14.68476
     145.50   3.162863     0.3678E-03  -5.80360  14.50901
     146.50   3.165838     0.4401E-03  -5.72566  14.31414
     147.50   3.168792     0.4934E-03  -5.67601  14.19002
     148.50   3.171726     0.5347E-03  -5.64110  14.10274
     149.50   3.174641     0.6870E-03  -5.53223  13.83058
     150.50   3.177536     0.8155E-03  -5.45777  13.64442
     151.20   3.179552     0.6611E-03  -5.54895  13.87238
     151.70   3.180986     0.7990E-03  -5.46669  13.66673
     152.50   3.183270     0.1523E-02  -5.18663  12.96658
     153.50   3.186108     0.2203E-02  -5.02612  12.56530
     154.50   3.188928     0.1972E-02  -5.07441  12.68602
     155.50   3.191730     0.2808E-02  -4.92080  12.30201
     156.50   3.194514     0.2681E-02  -4.94100  12.35250
     157.50   3.197281     0.4332E-02  -4.73252  11.83130
     158.50   3.200029     0.5152E-02  -4.65723  11.64307
     159.50   3.202761     0.5959E-02  -4.59403  11.48508
     160.50   3.205475     0.6289E-02  -4.57065  11.42663
     161.50   3.208173     0.7020E-02  -4.52290  11.30726
     162.50   3.210853     0.7509E-02  -4.49366  11.23415
     163.50   3.213518     0.8951E-02  -4.41736  11.04340
     164.50   3.216166     0.1195E-01  -4.29197  10.72992
     165.50   3.218798     0.7879E-02  -4.47272  11.18181
     166.50   3.221414     0.1355E-01  -4.23732  10.59329
     167.20   3.223236     0.9855E-02  -4.37555  10.93887
     167.70   3.224533     0.4343E-01  -3.73145   9.32861
     168.50   3.226600     0.4447E-01  -3.72118   9.30295
     169.50   3.229170     0.4817E-01  -3.68643   9.21607
     170.50   3.231725     0.5827E-01  -3.60375   9.00937
     171.50   3.234264     0.8361E-01  -3.44696   8.61739
     172.50   3.236789     0.1016E+00  -3.36219   8.40548
     173.50   3.239300     0.1357E+00  -3.23665   8.09161
     174.50   3.241796     0.1594E+00  -3.16682   7.91705
     175.50   3.244277     0.2379E+00  -2.99276   7.48190
     176.50   3.246745     0.1802E+00  -3.11348   7.78369
     177.50   3.249198     0.2277E+00  -3.01178   7.52945
     178.50   3.251638     0.2910E+00  -2.90538   7.26345
     179.50   3.254065     0.4282E+00  -2.73759   6.84398
     180.50   3.256477     0.4041E+00  -2.76268   6.90669
     181.50   3.258877     0.3560E+00  -2.81779   7.04448
     182.50   3.261263     0.4252E+00  -2.74059   6.85147
     183.50   3.263636     0.4330E+00  -2.73275   6.83186
     184.50   3.265996     0.2584E+00  -2.95693   7.39232
     185.50   3.268344     0.4940E+00  -2.67551   6.68877
     186.50   3.270679     0.6665E+00  -2.54541   6.36352
     187.50   3.273001     0.6627E+00  -2.54791   6.36978
     188.50   3.275311     0.7000E+00  -2.52409   6.31022
     189.50   3.277609     0.9216E+00  -2.40469   6.01173
     190.50   3.279895     0.8594E+00  -2.43504   6.08760
     191.50   3.282169     0.9668E+00  -2.38389   5.95972
     192.50   3.284431     0.7909E+00  -2.47108   6.17771
     193.50   3.286681     0.3867E+00  -2.78189   6.95473
     194.50   3.288920     0.1148E+01  -2.30926   5.77314
     195.50   3.291147     0.1211E+01  -2.28602   5.71504
     196.70   3.293804     0.1583E+01  -2.16978   5.42445
     197.60   3.295787     0.1333E+01  -2.24437   5.61092
     198.40   3.297542     0.1702E+01  -2.13830   5.34574
     199.50   3.299943     0.1837E+01  -2.10506   5.26265
     200.50   3.302114     0.1660E+01  -2.14911   5.37278
     201.50   3.304275     0.1809E+01  -2.11187   5.27969
     202.50   3.306425     0.1319E+01  -2.24882   5.62206
     203.50   3.308564     0.2050E+01  -2.05748   5.14371
     204.50   3.310693     0.2389E+01  -1.99093   4.97734
     205.50   3.312812     0.2271E+01  -2.01294   5.03236
     206.50   3.314920     0.2153E+01  -2.03626   5.09066
     207.40   3.316809     0.2509E+01  -1.96964   4.92409
     207.80   3.317646     0.5664E+01  -1.61610   4.04026
     208.50   3.319106     0.7124E+01  -1.51648   3.79119
     209.50   3.321184     0.6451E+01  -1.55961   3.89902
     210.50   3.323252     0.6032E+01  -1.58876   3.97191
     211.50   3.325310     0.7057E+01  -1.52057   3.80144
     212.50   3.327359     0.5945E+01  -1.59508   3.98771
     213.50   3.329398     0.5612E+01  -1.62009   4.05024
     214.50   3.331427     0.7586E+01  -1.48918   3.72296
     215.50   3.333447     0.7469E+01  -1.49593   3.73981
     216.50   3.335458     0.6212E+01  -1.57599   3.93998
     217.50   3.337459     0.6366E+01  -1.56532   3.91330
     218.50   3.339452     0.8482E+01  -1.44070   3.60175
     219.50   3.341434     0.8412E+01  -1.44431   3.61077
     220.50   3.343409     0.8065E+01  -1.46264   3.65659
     221.50   3.345374     0.5912E+01  -1.59751   3.99377
     222.50   3.347330     0.7238E+01  -1.50963   3.77407
     223.50   3.349277     0.1001E+02  -1.36880   3.42199
     224.50   3.351216     0.9424E+01  -1.39496   3.48740
     225.50   3.353147     0.6744E+01  -1.54028   3.85071
     226.50   3.355068     0.6146E+01  -1.58061   3.95153
     227.50   3.356982     0.6812E+01  -1.53596   3.83991
     228.50   3.358886     0.9773E+01  -1.37918   3.44796
     229.50   3.360783     0.7823E+01  -1.47583   3.68958
     230.50   3.362671     0.9977E+01  -1.37020   3.42550
     231.50   3.364551     0.8268E+01  -1.45182   3.62955
     232.50   3.366423     0.6569E+01  -1.55168   3.87921
     233.50   3.368287     0.5357E+01  -1.64030   4.10076
     234.50   3.370143     0.3180E+01  -1.86672   4.66681
     235.50   3.371991     0.7517E+01  -1.49318   3.73294
     236.50   3.373831     0.3683E+01  -1.80299   4.50748
     237.50   3.375664     0.5344E+01  -1.64134   4.10336
     238.50   3.377488     0.2581E+01  -1.95736   4.89340
     239.50   3.379306     0.3578E+01  -1.81554   4.53885
     240.50   3.381115     0.3608E+01  -1.81194   4.52984
     241.50   3.382917     0.4649E+01  -1.70183   4.25458
     242.50   3.384712     0.9220E+01  -1.40449   3.51122
     243.50   3.386499     0.9225E+01  -1.40423   3.51057
     244.50   3.388279     0.1131E+02  -1.31564   3.28910
     245.50   3.390052     0.1208E+02  -1.28715   3.21787
     246.50   3.391817     0.1030E+02  -1.35644   3.39109
     247.50   3.393575     0.8789E+01  -1.42527   3.56317
     248.50   3.395326     0.4654E+01  -1.70139   4.25349
     249.50   3.397071     0.6266E+01  -1.57220   3.93049
     250.50   3.398808     0.1064E+02  -1.34209   3.35523
     251.30   3.400192     0.3649E+01  -1.80699   4.51747
     251.80   3.401056     0.2404E+01  -1.98826   4.97064
     252.50   3.402261     0.3018E+01  -1.88949   4.72373
     253.50   3.403978     0.6189E+01  -1.57762   3.94404
     254.50   3.405688     0.6730E+01  -1.54123   3.85307
     255.50   3.407391     0.1297E+02  -1.25634   3.14085
     256.50   3.409087     0.9310E+01  -1.40027   3.50066
     257.50   3.410777     0.1228E+02  -1.27986   3.19964
     258.50   3.412461     0.1066E+02  -1.34148   3.35370
     259.50   3.414137     0.9337E+01  -1.39900   3.49751
     260.50   3.415808     0.7760E+01  -1.47934   3.69835
     261.50   3.417472     0.6773E+01  -1.53843   3.84608
     262.50   3.419129     0.1005E+02  -1.36696   3.41740
     263.50   3.420781     0.1839E+02  -1.10472   2.76179
     264.50   3.422426     0.2545E+02  -0.96356   2.40891
     265.50   3.424065     0.3479E+02  -0.82773   2.06932
     266.50   3.425697     0.2239E+02  -1.01923   2.54806
     267.50   3.427324     0.2567E+02  -0.95979   2.39947
     268.50   3.428944     0.2966E+02  -0.89700   2.24250
     269.50   3.430559     0.2123E+02  -1.04219   2.60546
     270.50   3.432167     0.2630E+02  -0.94930   2.37324
     271.50   3.433770     0.1870E+02  -1.09735   2.74337
     272.50   3.435366     0.1516E+02  -1.18838   2.97095
     273.50   3.436957     0.1941E+02  -1.08110   2.70274
     274.50   3.438542     0.1001E+02  -1.36879   3.42197
     275.50   3.440122     0.1446E+02  -1.20895   3.02238
     276.50   3.441695     0.1956E+02  -1.07777   2.69442
     277.50   3.443263     0.2104E+02  -1.04608   2.61519
     278.50   3.444825     0.1152E+02  -1.30759   3.26897
     279.50   3.446382     0.4261E+01  -1.73968   4.34920
     280.50   3.447933     0.5438E+01  -1.63380   4.08450
     281.50   3.449478     0.1827E+02  -1.10743   2.76857
     282.50   3.451018     0.2776E+02  -0.92576   2.31439
     283.50   3.452553     0.2611E+02  -0.95242   2.38106
     284.50   3.454082     0.1866E+02  -1.09831   2.74578
     285.50   3.455606     0.9610E+01  -1.38649   3.46622
     286.50   3.457125     0.2629E+02  -0.94940   2.37349
     287.50   3.458638     0.3468E+02  -0.82919   2.07299
     288.50   3.460146     0.3120E+02  -0.87512   2.18780
     289.50   3.461648     0.3762E+02  -0.79377   1.98442
     291.00   3.463893     0.5105E+02  -0.66123   1.65309
     293.00   3.466868     0.4633E+02  -0.70336   1.75840
     295.00   3.469822     0.4463E+02  -0.71956   1.79891
     297.00   3.472756     0.4719E+02  -0.69538   1.73845
     299.00   3.475671     0.4890E+02  -0.67992   1.69981
     301.00   3.478566     0.4993E+02  -0.67087   1.67717
     303.00   3.481443     0.5258E+02  -0.64837   1.62092
     305.00   3.484300     0.5503E+02  -0.62865   1.57162
     307.00   3.487138     0.5586E+02  -0.62212   1.55531
     309.00   3.489959     0.5274E+02  -0.64705   1.61761
     311.00   3.492760     0.5943E+02  -0.59518   1.48794
     313.00   3.495544     0.5534E+02  -0.62615   1.56537
     315.00   3.498311     0.5434E+02  -0.63406   1.58516
     317.00   3.501059     0.6065E+02  -0.58641   1.46602
     319.00   3.503791     0.5323E+02  -0.64303   1.60758
     321.00   3.506505     0.5922E+02  -0.59678   1.49195
     323.00   3.509202     0.5106E+02  -0.66111   1.65278
     325.00   3.511883     0.6938E+02  -0.52796   1.31991
     327.00   3.514548     0.7978E+02  -0.46733   1.16832
     329.00   3.517196     0.7795E+02  -0.47741   1.19352
     331.00   3.519828     0.7381E+02  -0.50107   1.25268
     333.00   3.522444     0.7565E+02  -0.49040   1.22600
     335.00   3.525045     0.7359E+02  -0.50237   1.25593
     337.00   3.527630     0.5597E+02  -0.62124   1.55310
     339.00   3.530200     0.6467E+02  -0.55850   1.39625
     341.00   3.532754     0.6683E+02  -0.54422   1.36056
     343.00   3.535294     0.7141E+02  -0.51546   1.28864
     345.00   3.537819     0.7633E+02  -0.48654   1.21636
     347.00   3.540329     0.7898E+02  -0.47170   1.17926
     349.00   3.542825     0.8676E+02  -0.43088   1.07720
     351.00   3.545307     0.9149E+02  -0.40783   1.01959
     353.00   3.547775     0.8317E+02  -0.44923   1.12307
     355.00   3.550228     0.9427E+02  -0.39484   0.98711
     357.00   3.552668     0.7197E+02  -0.51204   1.28010
     359.00   3.555094     0.7301E+02  -0.50581   1.26453
     361.00   3.557507     0.8714E+02  -0.42899   1.07249
     363.00   3.559907     0.8930E+02  -0.41836   1.04590
     364.00   3.561101     0.9133E+02  -0.40859   1.02147
     365.00   3.562293     0.9885E+02  -0.37422   0.93556
     367.00   3.564666     0.1035E+03  -0.35430   0.88575
     369.00   3.567026     0.9454E+02  -0.39359   0.98399
     371.00   3.569374     0.1004E+03  -0.36740   0.91849
     373.00   3.571709     0.7158E+02  -0.51442   1.28606
     375.00   3.574031     0.8096E+02  -0.46095   1.15239
     377.00   3.576341     0.1008E+03  -0.36566   0.91415
     379.00   3.578639     0.1045E+03  -0.35011   0.87528
     381.00   3.580925     0.1019E+03  -0.36118   0.90294
     383.00   3.583199     0.6242E+02  -0.57392   1.43479
     385.00   3.585461     0.8597E+02  -0.43489   1.08722
     387.00   3.587711     0.8522E+02  -0.43869   1.09673
     389.00   3.589950     0.9677E+02  -0.38347   0.95868
     391.00   3.592177     0.1148E+03  -0.30945   0.77364
     393.00   3.594393     0.5810E+02  -0.60504   1.51260
     395.00   3.596597     0.1008E+03  -0.36591   0.91477
     397.00   3.598790     0.6979E+02  -0.52540   1.31349
     399.00   3.600973     0.1427E+03  -0.21482   0.53706
     401.00   3.603144     0.1554E+03  -0.17771   0.44427
     403.00   3.605305     0.1543E+03  -0.18079   0.45197
     405.00   3.607455     0.1487E+03  -0.19700   0.49250
     407.00   3.609594     0.1420E+03  -0.21695   0.54237
     409.00   3.611723     0.1681E+03  -0.14367   0.35918
     411.00   3.613842     0.1577E+03  -0.17129   0.42822
     413.00   3.615950     0.1576E+03  -0.17153   0.42883
     415.00   3.618048     0.1553E+03  -0.17812   0.44529
     417.00   3.620136     0.1574E+03  -0.17214   0.43034
     419.00   3.622214     0.1534E+03  -0.18345   0.45862
     421.00   3.624282     0.1549E+03  -0.17920   0.44801
     423.00   3.626340     0.1480E+03  -0.19885   0.49711
     425.00   3.628389     0.1549E+03  -0.17907   0.44768
     427.00   3.630428     0.1467E+03  -0.20272   0.50681
     429.00   3.632457     0.1369E+03  -0.23276   0.58190
     431.00   3.634477     0.1178E+03  -0.29804   0.74511
     433.00   3.636488     0.1683E+03  -0.14310   0.35776
     435.00   3.638489     0.1649E+03  -0.15196   0.37990
     437.00   3.640481     0.1803E+03  -0.11321   0.28303
     439.00   3.642465     0.1629E+03  -0.15734   0.39335
     441.00   3.644439     0.1729E+03  -0.13147   0.32867
     443.00   3.646404     0.1863E+03  -0.09902   0.24755
     445.00   3.648360     0.1868E+03  -0.09794   0.24486
     447.00   3.650307     0.1981E+03  -0.07229   0.18072
     449.00   3.652246     0.2030E+03  -0.06173   0.15432
     451.00   3.654176     0.2268E+03  -0.01359   0.03397
     453.00   3.656098     0.2020E+03  -0.06391   0.15977
     455.00   3.658011     0.2106E+03  -0.04568   0.11420
     457.00   3.659916     0.2263E+03  -0.01451   0.03628
     459.00   3.661813     0.2137E+03  -0.03939   0.09847
     461.00   3.663701     0.2206E+03  -0.02560   0.06401
     463.00   3.665581     0.2160E+03  -0.03471   0.08676
     465.00   3.667453     0.2187E+03  -0.02938   0.07344
     467.00   3.669317     0.2270E+03  -0.01324   0.03311
     469.00   3.671173     0.2233E+03  -0.02042   0.05106
     471.00   3.673021     0.2183E+03  -0.03019   0.07549
     473.00   3.674861     0.2252E+03  -0.01663   0.04157
     475.00   3.676694     0.2302E+03  -0.00711   0.01776
     477.00   3.678518     0.2263E+03  -0.01460   0.03651
     479.00   3.680336     0.2273E+03  -0.01265   0.03164
     481.00   3.682145     0.2276E+03  -0.01199   0.02998
     483.00   3.683947     0.2332E+03  -0.00149   0.00372
     485.00   3.685742     0.2227E+03  -0.02144   0.05360
     487.00   3.687529     0.2041E+03  -0.05940   0.14849
     489.00   3.689309     0.2271E+03  -0.01308   0.03270
     491.00   3.691082     0.2283E+03  -0.01065   0.02663
     493.00   3.692847     0.2248E+03  -0.01743   0.04357
     495.00   3.694605     0.2331E+03  -0.00161   0.00403
     497.00   3.696356     0.2271E+03  -0.01291   0.03228
     499.00   3.698101     0.2129E+03  -0.04114   0.10285
     501.00   3.699838     0.2026E+03  -0.06261   0.15652
     503.00   3.701568     0.2151E+03  -0.03648   0.09119
     505.00   3.703291     0.2150E+03  -0.03681   0.09203
     507.00   3.705008     0.2238E+03  -0.01930   0.04825
     509.00   3.706718     0.2134E+03  -0.04008   0.10020
     511.00   3.708421     0.2179E+03  -0.03101   0.07753
     513.00   3.710117     0.2122E+03  -0.04253   0.10634
     515.00   3.711807     0.2053E+03  -0.05691   0.14228
     517.00   3.713490     0.1881E+03  -0.09480   0.23700
     519.00   3.715167     0.1945E+03  -0.08026   0.20065
     521.00   3.716838     0.2081E+03  -0.05086   0.12714
     523.00   3.718502     0.2235E+03  -0.01985   0.04963
     525.00   3.720159     0.2320E+03  -0.00374   0.00934
     527.00   3.721811     0.2070E+03  -0.05331   0.13329
     529.00   3.723456     0.2356E+03   0.00289  -0.00721
     531.00   3.725095     0.2479E+03   0.02500  -0.06251
     533.00   3.726727     0.2220E+03  -0.02280   0.05700
     535.00   3.728354     0.2416E+03   0.01393  -0.03483
     537.00   3.729974     0.2395E+03   0.01006  -0.02516
     539.00   3.731589     0.2353E+03   0.00239  -0.00596
     541.00   3.733197     0.2315E+03  -0.00457   0.01143
     543.00   3.734800     0.2352E+03   0.00216  -0.00539
     545.00   3.736397     0.2398E+03   0.01061  -0.02653
     547.00   3.737987     0.2345E+03   0.00094  -0.00235
     549.00   3.739572     0.2368E+03   0.00518  -0.01294
     551.00   3.741152     0.2340E+03   0.00000   0.00000
     553.00   3.742725     0.2412E+03   0.01309  -0.03273
     555.00   3.744293     0.2450E+03   0.01989  -0.04973
     557.00   3.745855     0.2394E+03   0.00987  -0.02466
     559.00   3.747412     0.2342E+03   0.00040  -0.00100
     561.00   3.748963     0.2408E+03   0.01247  -0.03117
     563.00   3.750508     0.2403E+03   0.01150  -0.02875
     565.00   3.752048     0.2435E+03   0.01728  -0.04321
     567.00   3.753583     0.2381E+03   0.00761  -0.01903
     569.00   3.755112     0.2447E+03   0.01950  -0.04874
     571.00   3.756636     0.2377E+03   0.00678  -0.01696
     573.00   3.758155     0.2547E+03   0.03689  -0.09222
     575.00   3.759668     0.2476E+03   0.02462  -0.06154
     577.00   3.761176     0.2502E+03   0.02915  -0.07287
     579.00   3.762679     0.2424E+03   0.01530  -0.03824
     581.00   3.764176     0.2504E+03   0.02942  -0.07354
     583.00   3.765669     0.2551E+03   0.03744  -0.09361
     585.00   3.767156     0.2467E+03   0.02293  -0.05733
     587.00   3.768638     0.2459E+03   0.02151  -0.05377
     589.00   3.770115     0.2222E+03  -0.02253   0.05632
     591.00   3.771587     0.2417E+03   0.01404  -0.03511
     593.00   3.773055     0.2436E+03   0.01743  -0.04356
     595.00   3.774517     0.2443E+03   0.01873  -0.04682
     597.00   3.775974     0.2482E+03   0.02563  -0.06408
     599.00   3.777427     0.2455E+03   0.02075  -0.05188
     601.00   3.778874     0.2427E+03   0.01588  -0.03970
     603.00   3.780317     0.2479E+03   0.02512  -0.06281
     605.00   3.781755     0.2525E+03   0.03301  -0.08252
     607.00   3.783189     0.2513E+03   0.03104  -0.07759
     609.00   3.784617     0.2447E+03   0.01939  -0.04847
     611.00   3.786041     0.2456E+03   0.02108  -0.05270
     613.00   3.787461     0.2345E+03   0.00091  -0.00227
     615.00   3.788875     0.2396E+03   0.01029  -0.02572
     617.00   3.790285     0.2269E+03  -0.01341   0.03352
     619.00   3.791691     0.2376E+03   0.00668  -0.01671
     621.00   3.793092     0.2357E+03   0.00311  -0.00776
     623.00   3.794488     0.2293E+03  -0.00872   0.02179
     625.00   3.795880     0.2233E+03  -0.02025   0.05064
     627.00   3.797267     0.2335E+03  -0.00097   0.00242
     629.00   3.798651     0.2377E+03   0.00684  -0.01711
     631.00   3.800029     0.2336E+03  -0.00080   0.00201
     633.00   3.801404     0.2374E+03   0.00632  -0.01580
     635.00   3.802774     0.2394E+03   0.00997  -0.02492
     637.00   3.804139     0.2391E+03   0.00937  -0.02342
     639.00   3.805501     0.2421E+03   0.01480  -0.03700
     641.00   3.806858     0.2377E+03   0.00690  -0.01725
     643.00   3.808211     0.2399E+03   0.01083  -0.02708
     645.00   3.809560     0.2393E+03   0.00982  -0.02454
     647.00   3.810904     0.2388E+03   0.00879  -0.02198
     649.00   3.812245     0.2346E+03   0.00117  -0.00292
     651.00   3.813581     0.2419E+03   0.01437  -0.03593
     653.00   3.814913     0.2428E+03   0.01608  -0.04019
     655.00   3.816241     0.2360E+03   0.00362  -0.00904
     657.00   3.817565     0.2210E+03  -0.02490   0.06225
     659.00   3.818885     0.2368E+03   0.00512  -0.01281
     661.00   3.820201     0.2392E+03   0.00950  -0.02374
     663.00   3.821513     0.2367E+03   0.00497  -0.01243
     665.00   3.822822     0.2346E+03   0.00109  -0.00273
     667.00   3.824126     0.2293E+03  -0.00873   0.02181
     669.00   3.825426     0.2317E+03  -0.00427   0.01069
     671.00   3.826723     0.2233E+03  -0.02032   0.05081
     673.00   3.828015     0.2274E+03  -0.01250   0.03125
     675.00   3.829304     0.2238E+03  -0.01940   0.04849
     677.00   3.830589     0.2250E+03  -0.01708   0.04269
     679.00   3.831870     0.2234E+03  -0.02009   0.05022
     681.00   3.833147     0.2243E+03  -0.01846   0.04615
     683.00   3.834421     0.2271E+03  -0.01297   0.03242
     685.00   3.835690     0.2227E+03  -0.02155   0.05388
     687.00   3.836957     0.2260E+03  -0.01512   0.03781
     689.00   3.838219     0.2298E+03  -0.00781   0.01952
     691.00   3.839478     0.2306E+03  -0.00627   0.01567
     693.00   3.840733     0.2299E+03  -0.00768   0.01920
     695.00   3.841985     0.2298E+03  -0.00789   0.01973
     697.00   3.843233     0.2331E+03  -0.00176   0.00441
     699.00   3.844477     0.2328E+03  -0.00226   0.00566
     701.00   3.845718     0.2303E+03  -0.00686   0.01714
     703.00   3.846955     0.2324E+03  -0.00306   0.00765
     705.00   3.848189     0.2296E+03  -0.00830   0.02074
     707.00   3.849419     0.2209E+03  -0.02506   0.06264
     709.00   3.850646     0.2131E+03  -0.04057   0.10143
     711.00   3.851870     0.2074E+03  -0.05233   0.13083
     713.00   3.853090     0.2026E+03  -0.06263   0.15658
     715.00   3.854306     0.2022E+03  -0.06346   0.15864
     717.00   3.855519     0.2048E+03  -0.05786   0.14466
     719.00   3.856729     0.2015E+03  -0.06503   0.16258
     721.00   3.857935     0.2067E+03  -0.05385   0.13461
     723.00   3.859138     0.2119E+03  -0.04309   0.10772
     725.00   3.860338     0.2141E+03  -0.03867   0.09666
     727.00   3.861534     0.2162E+03  -0.03435   0.08588
     729.00   3.862728     0.2154E+03  -0.03588   0.08969
     731.00   3.863917     0.2223E+03  -0.02223   0.05556
     733.00   3.865104     0.2225E+03  -0.02198   0.05494
     735.00   3.866287     0.2256E+03  -0.01592   0.03979
     737.00   3.867467     0.2305E+03  -0.00654   0.01635
     739.00   3.868644     0.2265E+03  -0.01421   0.03553
     741.00   3.869818     0.2257E+03  -0.01570   0.03926
     743.00   3.870989     0.2303E+03  -0.00697   0.01742
     745.00   3.872156     0.2303E+03  -0.00692   0.01731
     747.00   3.873321     0.2329E+03  -0.00198   0.00495
     749.00   3.874482     0.2317E+03  -0.00436   0.01090
     751.00   3.875640     0.2329E+03  -0.00209   0.00522
     753.00   3.876795     0.2347E+03   0.00137  -0.00342
     755.00   3.877947     0.2357E+03   0.00308  -0.00771
     757.00   3.879096     0.2343E+03   0.00049  -0.00122
     759.00   3.880242     0.2297E+03  -0.00799   0.01998
     761.00   3.881385     0.2257E+03  -0.01562   0.03905
     763.00   3.882524     0.2216E+03  -0.02369   0.05923
     765.00   3.883662     0.2168E+03  -0.03313   0.08282
     767.00   3.884795     0.2076E+03  -0.05195   0.12986
     769.00   3.885926     0.2118E+03  -0.04329   0.10822
     771.00   3.887054     0.2080E+03  -0.05124   0.12810
     773.00   3.888180     0.2087E+03  -0.04972   0.12430
     775.00   3.889302     0.2069E+03  -0.05343   0.13358
     777.00   3.890421     0.2099E+03  -0.04716   0.11791
     779.00   3.891537     0.2101E+03  -0.04673   0.11682
     781.00   3.892651     0.2107E+03  -0.04555   0.11387
     783.00   3.893762     0.2100E+03  -0.04706   0.11765
     785.00   3.894870     0.2082E+03  -0.05083   0.12709
     787.00   3.895975     0.2112E+03  -0.04444   0.11110
     789.00   3.897077     0.2098E+03  -0.04737   0.11842
     791.00   3.898176     0.2055E+03  -0.05639   0.14099
     793.00   3.899273     0.2061E+03  -0.05507   0.13768
     795.00   3.900367     0.2056E+03  -0.05624   0.14059
     797.00   3.901458     0.2106E+03  -0.04567   0.11417
     799.00   3.902547     0.2106E+03  -0.04568   0.11420
     801.00   3.903632     0.2144E+03  -0.03795   0.09488
     803.00   3.904716     0.2151E+03  -0.03662   0.09155
     805.00   3.905796     0.2141E+03  -0.03861   0.09651
     807.00   3.906873     0.2162E+03  -0.03429   0.08574
     809.00   3.907948     0.2144E+03  -0.03808   0.09520
     811.00   3.909021     0.2154E+03  -0.03590   0.08976
     813.00   3.910090     0.2181E+03  -0.03060   0.07650
     815.00   3.911158     0.2186E+03  -0.02960   0.07400
     817.00   3.912222     0.2187E+03  -0.02946   0.07366
     819.00   3.913284     0.2146E+03  -0.03751   0.09377
     821.00   3.914343     0.2128E+03  -0.04129   0.10322
     823.00   3.915400     0.2133E+03  -0.04028   0.10069
     825.00   3.916454     0.2133E+03  -0.04017   0.10041
     827.00   3.917506     0.2144E+03  -0.03799   0.09498
     829.00   3.918555     0.2127E+03  -0.04135   0.10338
     831.00   3.919601     0.2085E+03  -0.05015   0.12539
     833.00   3.920645     0.2069E+03  -0.05344   0.13360
     835.00   3.921686     0.2072E+03  -0.05276   0.13190
     837.00   3.922725     0.2077E+03  -0.05171   0.12929
     839.00   3.923762     0.2028E+03  -0.06218   0.15544
     841.00   3.924796     0.2074E+03  -0.05247   0.13119
     843.00   3.925828     0.2025E+03  -0.06277   0.15692
     845.00   3.926857     0.1996E+03  -0.06896   0.17241
     847.00   3.927883     0.1983E+03  -0.07193   0.17983
     849.00   3.928908     0.2002E+03  -0.06782   0.16956
     851.00   3.929929     0.1925E+03  -0.08485   0.21213
     853.00   3.930949     0.1994E+03  -0.06945   0.17363
     855.00   3.931966     0.1882E+03  -0.09458   0.23644
     857.00   3.932981     0.2024E+03  -0.06303   0.15757
     859.00   3.933993     0.2003E+03  -0.06756   0.16890
     861.00   3.935003     0.2012E+03  -0.06564   0.16410
     863.00   3.936011     0.2035E+03  -0.06066   0.15165
     865.00   3.937016     0.2040E+03  -0.05955   0.14888
     867.00   3.938019     0.1900E+03  -0.09051   0.22628
     869.00   3.939020     0.1997E+03  -0.06893   0.17233
     871.00   3.940018     0.2037E+03  -0.06030   0.15074
     873.00   3.941014     0.2041E+03  -0.05927   0.14819
     875.00   3.942008     0.2018E+03  -0.06427   0.16069
     877.00   3.943000     0.2041E+03  -0.05946   0.14865
     879.00   3.943989     0.2046E+03  -0.05823   0.14558
     881.00   3.944976     0.2014E+03  -0.06514   0.16284
     883.00   3.945961     0.2027E+03  -0.06232   0.15579
     885.00   3.946943     0.2020E+03  -0.06377   0.15943
     887.00   3.947924     0.1971E+03  -0.07451   0.18627
     889.00   3.948902     0.1997E+03  -0.06890   0.17225
     891.00   3.949878     0.2006E+03  -0.06691   0.16727
     893.00   3.950851     0.1981E+03  -0.07243   0.18109
     895.00   3.951823     0.1978E+03  -0.07294   0.18235
     897.00   3.952792     0.1982E+03  -0.07201   0.18003
     899.00   3.953760     0.1984E+03  -0.07173   0.17932
     901.00   3.954725     0.1929E+03  -0.08396   0.20989
     903.00   3.955688     0.1980E+03  -0.07252   0.18131
     905.00   3.956649     0.2011E+03  -0.06580   0.16450
     907.00   3.957607     0.1999E+03  -0.06838   0.17096
     909.00   3.958564     0.1960E+03  -0.07706   0.19265
     911.00   3.959518     0.1975E+03  -0.07360   0.18400
     913.00   3.960471     0.1992E+03  -0.07002   0.17504
     915.00   3.961421     0.1984E+03  -0.07177   0.17942
     917.00   3.962369     0.1977E+03  -0.07319   0.18298
     919.00   3.963315     0.1984E+03  -0.07176   0.17940
     921.00   3.964260     0.1940E+03  -0.08132   0.20330
     923.00   3.965202     0.1922E+03  -0.08548   0.21371
     925.00   3.966142     0.1918E+03  -0.08631   0.21579
     927.00   3.967080     0.1929E+03  -0.08399   0.20996
     929.00   3.968016     0.1913E+03  -0.08758   0.21896
     931.00   3.968950     0.1919E+03  -0.08611   0.21527
     933.00   3.969882     0.1916E+03  -0.08691   0.21728
     935.00   3.970812     0.1910E+03  -0.08814   0.22036
     937.00   3.971740     0.1886E+03  -0.09376   0.23440
     939.00   3.972666     0.1906E+03  -0.08905   0.22262
     941.00   3.973590     0.1873E+03  -0.09659   0.24149
     943.00   3.974512     0.1900E+03  -0.09042   0.22604
     945.00   3.975432     0.1878E+03  -0.09546   0.23866
     947.00   3.976350     0.1900E+03  -0.09040   0.22600
     949.00   3.977266     0.1900E+03  -0.09049   0.22623
     951.00   3.978180     0.1883E+03  -0.09445   0.23612
     953.00   3.979093     0.1885E+03  -0.09388   0.23469
     955.00   3.980003     0.1849E+03  -0.10237   0.25591
     957.00   3.980912     0.1867E+03  -0.09814   0.24536
     959.00   3.981819     0.1884E+03  -0.09418   0.23544
     961.00   3.982723     0.1865E+03  -0.09865   0.24663
     963.00   3.983626     0.1867E+03  -0.09808   0.24520
     965.00   3.984527     0.1843E+03  -0.10364   0.25910
     967.00   3.985426     0.1843E+03  -0.10369   0.25923
     969.00   3.986324     0.1857E+03  -0.10031   0.25078
     971.00   3.987219     0.1844E+03  -0.10357   0.25892
     973.00   3.988113     0.1833E+03  -0.10600   0.26500
     975.00   3.989005     0.1827E+03  -0.10749   0.26873
     977.00   3.989895     0.1829E+03  -0.10707   0.26767
     979.00   3.990783     0.1810E+03  -0.11153   0.27882
     981.00   3.991669     0.1836E+03  -0.10527   0.26319
     983.00   3.992553     0.1826E+03  -0.10777   0.26943
     985.00   3.993436     0.1830E+03  -0.10674   0.26684
     987.00   3.994317     0.1818E+03  -0.10969   0.27422
     989.00   3.995196     0.1813E+03  -0.11090   0.27724
     991.00   3.996074     0.1808E+03  -0.11198   0.27994
     993.00   3.996949     0.1810E+03  -0.11160   0.27900
     995.00   3.997823     0.1809E+03  -0.11188   0.27970
     997.00   3.998695     0.1807E+03  -0.11231   0.28076
     999.00   3.999566     0.1801E+03  -0.11373   0.28434
    1003.00   4.001301     0.1785E+03  -0.11763   0.29407
    1008.00   4.003461     0.1765E+03  -0.12244   0.30611
    1013.00   4.005610     0.1770E+03  -0.12128   0.30321
    1018.00   4.007748     0.1750E+03  -0.12622   0.31556
    1023.00   4.009875     0.1747E+03  -0.12699   0.31748
    1028.00   4.011993     0.1744E+03  -0.12777   0.31943
    1033.00   4.014100     0.1719E+03  -0.13399   0.33496
    1038.00   4.016197     0.1708E+03  -0.13677   0.34191
    1043.00   4.018284     0.1710E+03  -0.13624   0.34060
    1048.00   4.020361     0.1694E+03  -0.14021   0.35053
    1053.00   4.022429     0.1691E+03  -0.14114   0.35285
    1058.00   4.024486     0.1671E+03  -0.14621   0.36553
    1063.00   4.026533     0.1662E+03  -0.14859   0.37148
    1068.00   4.028571     0.1638E+03  -0.15479   0.38698
    1073.00   4.030600     0.1639E+03  -0.15471   0.38678
    1078.00   4.032619     0.1624E+03  -0.15864   0.39659
    1083.00   4.034628     0.1602E+03  -0.16443   0.41108
    1088.00   4.036629     0.1595E+03  -0.16658   0.41645
    1093.00   4.038620     0.1587E+03  -0.16874   0.42184
    1098.00   4.040603     0.1568E+03  -0.17381   0.43454
    1103.00   4.042576     0.1565E+03  -0.17465   0.43663
    1108.00   4.044539     0.1555E+03  -0.17751   0.44377
    1113.00   4.046495     0.1546E+03  -0.17992   0.44979
    1118.00   4.048442     0.1534E+03  -0.18336   0.45841
    1123.00   4.050380     0.1532E+03  -0.18389   0.45972
    1128.00   4.052309     0.1516E+03  -0.18859   0.47148
    1133.00   4.054230     0.1512E+03  -0.18964   0.47410
    1138.00   4.056142     0.1502E+03  -0.19262   0.48154
    1143.00   4.058046     0.1488E+03  -0.19653   0.49132
    1148.00   4.059942     0.1498E+03  -0.19367   0.48418
    1153.00   4.061830     0.1494E+03  -0.19492   0.48731
    1158.00   4.063708     0.1478E+03  -0.19941   0.49851
    1163.00   4.065579     0.1460E+03  -0.20472   0.51179
    1168.00   4.067443     0.1459E+03  -0.20518   0.51294
    1173.00   4.069298     0.1464E+03  -0.20363   0.50908
    1178.00   4.071145     0.1442E+03  -0.21021   0.52552
    1183.00   4.072985     0.1433E+03  -0.21302   0.53254
    1188.00   4.074817     0.1417E+03  -0.21799   0.54498
    1193.00   4.076640     0.1433E+03  -0.21310   0.53274
    1198.00   4.078457     0.1394E+03  -0.22495   0.56238
    1203.00   4.080266     0.1411E+03  -0.21973   0.54934
    1208.00   4.082067     0.1398E+03  -0.22368   0.55919
    1213.00   4.083861     0.1398E+03  -0.22384   0.55960
    1218.00   4.085648     0.1397E+03  -0.22388   0.55969
    1223.00   4.087426     0.1388E+03  -0.22668   0.56670
    1228.00   4.089198     0.1379E+03  -0.22972   0.57430
    1233.00   4.090963     0.1372E+03  -0.23195   0.57986
    1238.00   4.092721     0.1366E+03  -0.23371   0.58427
    1243.00   4.094471     0.1355E+03  -0.23729   0.59323
    1248.00   4.096214     0.1353E+03  -0.23807   0.59519
    1253.00   4.097951     0.1341E+03  -0.24180   0.60449
    1258.00   4.099681     0.1337E+03  -0.24324   0.60811
    1263.00   4.101403     0.1330E+03  -0.24544   0.61359
    1268.00   4.103119     0.1320E+03  -0.24878   0.62194
    1273.00   4.104828     0.1318E+03  -0.24925   0.62311
    1278.00   4.106531     0.1316E+03  -0.24997   0.62492
    1283.00   4.108227     0.1278E+03  -0.26274   0.65685
    1288.00   4.109916     0.1295E+03  -0.25705   0.64262
    1293.00   4.111598     0.1283E+03  -0.26084   0.65211
    1298.00   4.113275     0.1290E+03  -0.25870   0.64675
    1303.00   4.114944     0.1277E+03  -0.26309   0.65773
    1308.00   4.116608     0.1278E+03  -0.26284   0.65709
    1313.00   4.118265     0.1258E+03  -0.26938   0.67345
    1318.00   4.119915     0.1254E+03  -0.27100   0.67750
    1323.00   4.121560     0.1254E+03  -0.27091   0.67728
    1328.00   4.123198     0.1237E+03  -0.27682   0.69206
    1333.00   4.124830     0.1240E+03  -0.27597   0.68992
    1338.00   4.126456     0.1230E+03  -0.27930   0.69824
    1343.00   4.128076     0.1232E+03  -0.27875   0.69688
    1348.00   4.129690     0.1224E+03  -0.28158   0.70394
    1353.00   4.131298     0.1218E+03  -0.28357   0.70892
    1358.00   4.132900     0.1203E+03  -0.28911   0.72276
    1363.00   4.134496     0.1198E+03  -0.29067   0.72668
    1368.00   4.136086     0.1201E+03  -0.28949   0.72373
    1373.00   4.137671     0.1203E+03  -0.28888   0.72220
    1378.00   4.139249     0.1199E+03  -0.29035   0.72589
    1383.00   4.140822     0.1198E+03  -0.29082   0.72706
    1388.00   4.142389     0.1187E+03  -0.29477   0.73693
    1393.00   4.143951     0.1146E+03  -0.31019   0.77548
    1398.00   4.145507     0.1147E+03  -0.30952   0.77380
    1403.00   4.147058     0.1136E+03  -0.31400   0.78501
    1408.00   4.148602     0.1141E+03  -0.31190   0.77975
    1413.00   4.150142     0.1130E+03  -0.31597   0.78991
    1418.00   4.151676     0.1136E+03  -0.31397   0.78493
    1423.00   4.153205     0.1124E+03  -0.31850   0.79625
    1428.00   4.154728     0.1112E+03  -0.32305   0.80761
    1433.00   4.156246     0.1128E+03  -0.31697   0.79243
    1438.00   4.157759     0.1131E+03  -0.31577   0.78942
    1443.00   4.159266     0.1110E+03  -0.32403   0.81007
    1448.00   4.160769     0.1126E+03  -0.31777   0.79443
    1453.00   4.162266     0.1115E+03  -0.32207   0.80519
    1457.00   4.163460     0.1119E+03  -0.32044   0.80109
    1462.00   4.164948     0.1095E+03  -0.32981   0.82452
    1468.00   4.166726     0.1097E+03  -0.32919   0.82299
    1473.00   4.168202     0.1086E+03  -0.33331   0.83329
    1478.00   4.169674     0.1092E+03  -0.33113   0.82783
    1483.00   4.171141     0.1094E+03  -0.33038   0.82596
    1488.00   4.172603     0.1085E+03  -0.33392   0.83479
    1493.00   4.174060     0.1103E+03  -0.32656   0.81640
    1498.00   4.175512     0.1095E+03  -0.32974   0.82436
    1503.00   4.176959     0.1084E+03  -0.33420   0.83550
    1508.00   4.178401     0.1083E+03  -0.33456   0.83639
    1513.00   4.179839     0.1098E+03  -0.32852   0.82129
    1518.00   4.181272     0.1100E+03  -0.32802   0.82004
    1523.00   4.182700     0.1097E+03  -0.32902   0.82256
    1528.00   4.184123     0.1102E+03  -0.32713   0.81782
    1533.00   4.185542     0.1097E+03  -0.32900   0.82250
    1538.00   4.186956     0.1087E+03  -0.33293   0.83232
    1543.00   4.188366     0.1092E+03  -0.33106   0.82766
    1548.00   4.189771     0.1093E+03  -0.33066   0.82665
    1553.00   4.191172     0.1085E+03  -0.33381   0.83452
    1558.00   4.192567     0.1061E+03  -0.34362   0.85905
    1563.00   4.193959     0.1074E+03  -0.33819   0.84547
    1568.00   4.195346     0.1066E+03  -0.34129   0.85323
    1573.00   4.196729     0.1079E+03  -0.33637   0.84093
    1578.00   4.198107     0.1014E+03  -0.36314   0.90785
    1583.00   4.199481     0.1039E+03  -0.35242   0.88105
    1588.00   4.200850     0.1032E+03  -0.35568   0.88920
    1593.00   4.202216     0.1056E+03  -0.34570   0.86424
    1598.00   4.203577     0.1066E+03  -0.34155   0.85386
    1605.00   4.205475     0.1036E+03  -0.35371   0.88428
    1615.00   4.208173     0.1046E+03  -0.34956   0.87391
    1625.00   4.210854     0.1021E+03  -0.36005   0.90013
    1635.00   4.213518     0.1037E+03  -0.35334   0.88336
    1645.00   4.216166     0.9995E+02  -0.36943   0.92358
    1655.00   4.218798     0.1011E+03  -0.36461   0.91152
    1665.00   4.221415     0.9814E+02  -0.37738   0.94346
    1675.00   4.224015     0.9764E+02  -0.37959   0.94897
    1685.00   4.226600     0.9614E+02  -0.38630   0.96576
    1695.00   4.229170     0.9523E+02  -0.39046   0.97614
    1705.00   4.231725     0.9306E+02  -0.40044   1.00111
    1715.00   4.234264     0.9152E+02  -0.40768   1.01920
    1725.00   4.236789     0.8956E+02  -0.41709   1.04273
    1735.00   4.239300     0.8693E+02  -0.43004   1.07510
    1745.00   4.241796     0.8609E+02  -0.43425   1.08563
    1755.00   4.244277     0.8478E+02  -0.44094   1.10234
    1765.00   4.246745     0.8314E+02  -0.44940   1.12349
    1775.00   4.249198     0.8135E+02  -0.45884   1.14710
    1785.00   4.251638     0.8029E+02  -0.46457   1.16143
    1795.00   4.254065     0.7865E+02  -0.47353   1.18382
    1805.00   4.256477     0.7697E+02  -0.48289   1.20721
    1815.00   4.258877     0.7540E+02  -0.49184   1.22960
    1825.00   4.261263     0.7434E+02  -0.49800   1.24500
    1835.00   4.263636     0.7316E+02  -0.50491   1.26228
    1845.00   4.265996     0.7167E+02  -0.51390   1.28475
    1855.00   4.268344     0.7092E+02  -0.51847   1.29618
    1865.00   4.270679     0.6927E+02  -0.52869   1.32173
    1875.00   4.273001     0.6756E+02  -0.53954   1.34886
    1885.00   4.275311     0.6713E+02  -0.54228   1.35569
    1895.00   4.277609     0.6486E+02  -0.55727   1.39318
    1905.00   4.279895     0.6485E+02  -0.55727   1.39319
    1915.00   4.282169     0.6346E+02  -0.56670   1.41676
    1925.00   4.284431     0.6236E+02  -0.57430   1.43576
    1935.00   4.286681     0.6067E+02  -0.58622   1.46555
    1945.00   4.288919     0.5908E+02  -0.59776   1.49441
    1955.00   4.291147     0.5876E+02  -0.60012   1.50030
    1965.00   4.293363     0.5767E+02  -0.60824   1.52060
    1975.00   4.295567     0.5630E+02  -0.61874   1.54685
    1985.00   4.297760     0.5550E+02  -0.62490   1.56224
    1995.00   4.299943     0.5469E+02  -0.63129   1.57823
    2005.00   4.302114     0.5419E+02  -0.63528   1.58819
    2015.00   4.304275     0.5338E+02  -0.64182   1.60456
    2025.00   4.306425     0.5209E+02  -0.65244   1.63110
    2035.00   4.308564     0.5126E+02  -0.65944   1.64860
    2045.00   4.310693     0.5089E+02  -0.66261   1.65654
    2055.00   4.312812     0.4998E+02  -0.67041   1.67602
    2065.00   4.314920     0.4905E+02  -0.67857   1.69642
    2075.00   4.317018     0.4839E+02  -0.68446   1.71114
    2085.00   4.319106     0.4761E+02  -0.69153   1.72882
    2095.00   4.321184     0.4668E+02  -0.70005   1.75011
    2105.00   4.323252     0.4628E+02  -0.70383   1.75957
    2115.00   4.325311     0.4545E+02  -0.71170   1.77926
    2125.00   4.327359     0.4473E+02  -0.71866   1.79664
    2135.00   4.329398     0.4422E+02  -0.72358   1.80895
    2145.00   4.331428     0.4350E+02  -0.73068   1.82670
    2155.00   4.333447     0.4280E+02  -0.73772   1.84431
    2165.00   4.335458     0.4184E+02  -0.74764   1.86910
    2175.00   4.337460     0.4133E+02  -0.75298   1.88245
    2185.00   4.339452     0.4078E+02  -0.75879   1.89697
    2195.00   4.341434     0.4024E+02  -0.76454   1.91134
    2205.00   4.343409     0.3929E+02  -0.77494   1.93736
    2215.00   4.345374     0.3907E+02  -0.77733   1.94333
    2225.00   4.347330     0.3818E+02  -0.78742   1.96856
    2235.00   4.349277     0.3767E+02  -0.79318   1.98296
    2245.00   4.351216     0.3712E+02  -0.79961   1.99902
    2255.00   4.353147     0.3662E+02  -0.80546   2.01365
    2265.00   4.355068     0.3589E+02  -0.81426   2.03565
    2275.00   4.356981     0.3557E+02  -0.81815   2.04538
    2285.00   4.358886     0.3485E+02  -0.82703   2.06757
    2295.00   4.360783     0.2901E+02  -0.90663   2.26656
    2305.00   4.362671     0.3149E+02  -0.87101   2.17752
    2315.00   4.364551     0.3130E+02  -0.87365   2.18412
    2325.00   4.366423     0.2690E+02  -0.93948   2.34870
    2335.00   4.368287     0.2900E+02  -0.90678   2.26694
    2345.00   4.370143     0.2740E+02  -0.93139   2.32848
    2355.00   4.371991     0.2501E+02  -0.97113   2.42783
    2365.00   4.373831     0.2696E+02  -0.93855   2.34637
    2375.00   4.375664     0.2566E+02  -0.96003   2.40007
    2385.00   4.377488     0.2365E+02  -0.99536   2.48841
    2395.00   4.379306     0.2518E+02  -0.96812   2.42031
    2405.00   4.381115     0.2448E+02  -0.98039   2.45099
    2415.00   4.382917     0.2255E+02  -1.01615   2.54037
    2425.00   4.384712     0.2377E+02  -0.99314   2.48286
    2435.00   4.386499     0.2303E+02  -1.00684   2.51711
    2445.00   4.388279     0.2273E+02  -1.01254   2.53135
    2455.00   4.390052     0.2216E+02  -1.02360   2.55901
    2465.00   4.391817     0.2234E+02  -1.02019   2.55047
    2475.00   4.393575     0.2174E+02  -1.03192   2.57979
    2485.00   4.395327     0.1965E+02  -1.07577   2.68942
    2495.00   4.397071     0.1933E+02  -1.08303   2.70758
    2505.00   4.398808     0.1962E+02  -1.07641   2.69102
    2515.00   4.400538     0.1865E+02  -1.09856   2.74641
    2525.00   4.402262     0.1913E+02  -1.08756   2.71891
    2535.00   4.403978     0.1917E+02  -1.08656   2.71641
    2545.00   4.405688     0.1893E+02  -1.09203   2.73007
    2555.00   4.407391     0.1886E+02  -1.09377   2.73444
    2565.00   4.409087     0.1896E+02  -1.09137   2.72842
    2575.00   4.410777     0.1906E+02  -1.08903   2.72257
    2585.00   4.412460     0.1850E+02  -1.10216   2.75540
    2595.00   4.414137     0.1858E+02  -1.10006   2.75015
    2605.00   4.415808     0.1858E+02  -1.10013   2.75032
    2615.00   4.417472     0.1826E+02  -1.10768   2.76921
    2625.00   4.419129     0.1795E+02  -1.11506   2.78764
    2635.00   4.420781     0.1799E+02  -1.11418   2.78544
    2645.00   4.422426     0.1783E+02  -1.11799   2.79497
    2655.00   4.424065     0.1758E+02  -1.12408   2.81020
    2665.00   4.425697     0.1729E+02  -1.13132   2.82829
    2675.00   4.427324     0.1744E+02  -1.12773   2.81932
    2685.00   4.428945     0.1725E+02  -1.13254   2.83135
    2695.00   4.430559     0.1692E+02  -1.14079   2.85197
    2705.00   4.432167     0.1689E+02  -1.14149   2.85374
    2715.00   4.433770     0.1672E+02  -1.14589   2.86472
    2725.00   4.435367     0.1661E+02  -1.14875   2.87188
    2735.00   4.436957     0.1632E+02  -1.15654   2.89135
    2745.00   4.438542     0.1627E+02  -1.15786   2.89465
    2755.00   4.440122     0.1614E+02  -1.16135   2.90337
    2765.00   4.441695     0.1593E+02  -1.16703   2.91757
    2775.00   4.443263     0.1571E+02  -1.17291   2.93228
    2785.00   4.444825     0.1564E+02  -1.17506   2.93766
    2795.00   4.446382     0.1555E+02  -1.17756   2.94391
    2805.00   4.447933     0.1537E+02  -1.18254   2.95634
    2815.00   4.449478     0.1516E+02  -1.18850   2.97126
    2825.00   4.451018     0.1504E+02  -1.19201   2.98003
    2835.00   4.452553     0.1493E+02  -1.19513   2.98781
    2845.00   4.454082     0.1475E+02  -1.20051   3.00126
    2855.00   4.455606     0.1459E+02  -1.20522   3.01306
    2865.00   4.457125     0.1444E+02  -1.20968   3.02419
    2875.00   4.458638     0.1427E+02  -1.21468   3.03670
    2885.00   4.460146     0.1415E+02  -1.21840   3.04601
    2895.00   4.461648     0.1401E+02  -1.22283   3.05708
    2905.00   4.463146     0.1385E+02  -1.22768   3.06920
    2915.00   4.464639     0.1372E+02  -1.23178   3.07945
    2925.00   4.466126     0.1351E+02  -1.23860   3.09650
    2935.00   4.467608     0.1344E+02  -1.24073   3.10184
    2945.00   4.469085     0.1327E+02  -1.24638   3.11594
    2955.00   4.470557     0.1314E+02  -1.25066   3.12664
    2965.00   4.472025     0.1303E+02  -1.25443   3.13608
    2975.00   4.473487     0.1289E+02  -1.25901   3.14751
    2985.00   4.474944     0.1274E+02  -1.26416   3.16041
    2995.00   4.476397     0.1260E+02  -1.26901   3.17252
    3005.00   4.477844     0.1247E+02  -1.27351   3.18378
    3015.00   4.479287     0.1236E+02  -1.27711   3.19278
    3025.00   4.480725     0.1222E+02  -1.28226   3.20564
    3035.00   4.482159     0.1205E+02  -1.28805   3.22013
    3045.00   4.483587     0.1198E+02  -1.29062   3.22656
    3055.00   4.485011     0.1186E+02  -1.29525   3.23812
    3065.00   4.486430     0.1173E+02  -1.29980   3.24949
    3075.00   4.487845     0.1163E+02  -1.30346   3.25865
    3085.00   4.489255     0.1149E+02  -1.30901   3.27252
    3095.00   4.490661     0.1138E+02  -1.31299   3.28249
    3105.00   4.492062     0.1129E+02  -1.31652   3.29131
    3115.00   4.493458     0.1112E+02  -1.32309   3.30773
    3125.00   4.494850     0.1105E+02  -1.32594   3.31486
    3135.00   4.496238     0.1094E+02  -1.33027   3.32568
    3145.00   4.497621     0.1082E+02  -1.33488   3.33720
    3155.00   4.499000     0.1069E+02  -1.34004   3.35009
    3165.00   4.500374     0.1058E+02  -1.34467   3.36168
    3175.00   4.501744     0.1049E+02  -1.34844   3.37110
    3185.00   4.503109     0.1038E+02  -1.35307   3.38267
    3195.00   4.504471     0.1028E+02  -1.35722   3.39304
    3210.00   4.506505     0.1011E+02  -1.36449   3.41123
    3230.00   4.509202     0.9894E+01  -1.37382   3.43456
    3250.00   4.511883     0.9687E+01  -1.38304   3.45760
    3270.00   4.514548     0.9478E+01  -1.39250   3.48124
    3290.00   4.517196     0.9260E+01  -1.40262   3.50656
    3310.00   4.519828     0.9079E+01  -1.41118   3.52796
    3330.00   4.522444     0.8880E+01  -1.42082   3.55206
    3350.00   4.525045     0.8710E+01  -1.42919   3.57298
    3370.00   4.527630     0.8520E+01  -1.43877   3.59694
    3390.00   4.530200     0.8331E+01  -1.44851   3.62128
    3410.00   4.532754     0.8149E+01  -1.45812   3.64530
    3430.00   4.535294     0.7998E+01  -1.46625   3.66564
    3450.00   4.537819     0.7836E+01  -1.47512   3.68781
    3470.00   4.540329     0.7669E+01  -1.48449   3.71124
    3490.00   4.542826     0.7511E+01  -1.49352   3.73379
    3510.00   4.545307     0.7361E+01  -1.50229   3.75573
    3530.00   4.547775     0.7197E+01  -1.51204   3.78011
    3550.00   4.550228     0.7059E+01  -1.52049   3.80124
    3570.00   4.552669     0.6910E+01  -1.52971   3.82429
    3590.00   4.555095     0.6771E+01  -1.53859   3.84648
    3610.00   4.557508     0.6643E+01  -1.54683   3.86707
    3630.00   4.559907     0.6508E+01  -1.55574   3.88936
    3650.00   4.562293     0.6365E+01  -1.56540   3.91350
    3670.00   4.564666     0.6235E+01  -1.57440   3.93600
    3690.00   4.567026     0.6094E+01  -1.58433   3.96083
    3710.00   4.569374     0.5967E+01  -1.59344   3.98359
    3730.00   4.571709     0.5866E+01  -1.60084   4.00209
    3750.00   4.574031     0.5725E+01  -1.61144   4.02859
    3770.00   4.576342     0.5641E+01  -1.61788   4.04470
    3790.00   4.578639     0.5528E+01  -1.62668   4.06670
    3810.00   4.580925     0.5426E+01  -1.63476   4.08689
    3830.00   4.583199     0.5328E+01  -1.64263   4.10658
    3850.00   4.585461     0.5228E+01  -1.65084   4.12710
    3870.00   4.587711     0.5114E+01  -1.66045   4.15113
    3890.00   4.589950     0.5023E+01  -1.66829   4.17072
    3910.00   4.592176     0.4932E+01  -1.67621   4.19054
    3930.00   4.594393     0.4839E+01  -1.68444   4.21109
    3950.00   4.596597     0.4734E+01  -1.69394   4.23486
    3970.00   4.598790     0.4651E+01  -1.70167   4.25417
    3990.00   4.600973     0.4546E+01  -1.71160   4.27899
    4010.00   4.603145     0.4473E+01  -1.71859   4.29646
    4030.00   4.605305     0.4399E+01  -1.72587   4.31468
    4050.00   4.607455     0.4306E+01  -1.73511   4.33778
    4070.00   4.609594     0.4235E+01  -1.74232   4.35580
    4090.00   4.611723     0.4160E+01  -1.75017   4.37543
    4110.00   4.613842     0.4087E+01  -1.75777   4.39443
    4130.00   4.615950     0.4019E+01  -1.76512   4.41280
    4150.00   4.618048     0.3944E+01  -1.77325   4.43313
    4170.00   4.620136     0.3874E+01  -1.78102   4.45255
    4190.00   4.622214     0.3804E+01  -1.78901   4.47252
    4210.00   4.624282     0.3732E+01  -1.79727   4.49319
    4230.00   4.626340     0.3683E+01  -1.80300   4.50751
    4250.00   4.628389     0.3612E+01  -1.81145   4.52863
    4270.00   4.630428     0.3556E+01  -1.81819   4.54548
    4290.00   4.632457     0.3382E+01  -1.83999   4.59998
    4310.00   4.634478     0.3207E+01  -1.86309   4.65771
    4330.00   4.636488     0.3202E+01  -1.86379   4.65946
    4350.00   4.638489     0.3054E+01  -1.88437   4.71092
    4370.00   4.640481     0.2967E+01  -1.89691   4.74227
    4390.00   4.642465     0.2903E+01  -1.90634   4.76585
    4410.00   4.644439     0.2781E+01  -1.92504   4.81260
    4430.00   4.646404     0.2740E+01  -1.93140   4.82850
    4450.00   4.648360     0.2688E+01  -1.93973   4.84933
    4470.00   4.650308     0.2589E+01  -1.95615   4.89038
    4490.00   4.652246     0.2589E+01  -1.95612   4.89029
    4510.00   4.654177     0.2520E+01  -1.96779   4.91948
    4530.00   4.656098     0.2451E+01  -1.97982   4.94956
    4550.00   4.658011     0.2441E+01  -1.98160   4.95400
    4570.00   4.659916     0.2412E+01  -1.98691   4.96728
    4590.00   4.661813     0.2330E+01  -2.00177   5.00443
    4610.00   4.663701     0.2337E+01  -2.00047   5.00118
    4630.00   4.665581     0.2290E+01  -2.00933   5.02332
    4650.00   4.667453     0.2266E+01  -2.01391   5.03478
    4670.00   4.669317     0.2253E+01  -2.01647   5.04119
    4690.00   4.671173     0.2210E+01  -2.02489   5.06223
    4710.00   4.673021     0.2171E+01  -2.03248   5.08121
    4730.00   4.674861     0.2175E+01  -2.03172   5.07930
    4750.00   4.676694     0.2125E+01  -2.04176   5.10440
    4770.00   4.678518     0.2098E+01  -2.04741   5.11854
    4790.00   4.680336     0.2078E+01  -2.05160   5.12901
    4810.00   4.682145     0.2026E+01  -2.06259   5.15648
    4830.00   4.683947     0.2033E+01  -2.06110   5.15276
    4850.00   4.685741     0.1995E+01  -2.06933   5.17333
    4870.00   4.687529     0.1955E+01  -2.07797   5.19492
    4890.00   4.689309     0.1930E+01  -2.08367   5.20917
    4910.00   4.691082     0.1906E+01  -2.08905   5.22263
    4930.00   4.692847     0.1876E+01  -2.09599   5.23997
    4950.00   4.694605     0.1844E+01  -2.10334   5.25835
    4970.00   4.696356     0.1831E+01  -2.10642   5.26604
    4990.00   4.698101     0.1805E+01  -2.11271   5.28178
    5010.00   4.699838     0.1783E+01  -2.11804   5.29510
    5030.00   4.701568     0.1760E+01  -2.12374   5.30935
    5050.00   4.703291     0.1722E+01  -2.13331   5.33326
    5070.00   4.705008     0.1708E+01  -2.13673   5.34182
    5090.00   4.706717     0.1687E+01  -2.14200   5.35499
    5110.00   4.708421     0.1657E+01  -2.15000   5.37501
    5130.00   4.710117     0.1645E+01  -2.15306   5.38265
    5150.00   4.711807     0.1616E+01  -2.16073   5.40183
    5170.00   4.713490     0.1610E+01  -2.16229   5.40573
    5190.00   4.715167     0.1580E+01  -2.17060   5.42649
    5210.00   4.716838     0.1563E+01  -2.17526   5.43814
    5230.00   4.718502     0.1537E+01  -2.18268   5.45671
    5250.00   4.720160     0.1525E+01  -2.18608   5.46519
    5270.00   4.721810     0.1517E+01  -2.18817   5.47041
    5290.00   4.723455     0.1482E+01  -2.19845   5.49612
    5310.00   4.725095     0.1463E+01  -2.20392   5.50979
    5330.00   4.726727     0.1450E+01  -2.20772   5.51930
    5350.00   4.728354     0.1433E+01  -2.21287   5.53218
    5370.00   4.729974     0.1417E+01  -2.21773   5.54433
    5390.00   4.731589     0.1402E+01  -2.22260   5.55650
    5410.00   4.733197     0.1385E+01  -2.22783   5.56957
    5430.00   4.734800     0.1360E+01  -2.23580   5.58950
    5450.00   4.736397     0.1353E+01  -2.23784   5.59461
    5470.00   4.737988     0.1331E+01  -2.24506   5.61265
    5490.00   4.739573     0.1317E+01  -2.24958   5.62395
    5510.00   4.741152     0.1299E+01  -2.25545   5.63861
    5530.00   4.742725     0.1301E+01  -2.25479   5.63697
    5550.00   4.744293     0.1267E+01  -2.26627   5.66568
    5570.00   4.745855     0.1265E+01  -2.26723   5.66808
    5590.00   4.747412     0.1243E+01  -2.27466   5.68666
    5610.00   4.748963     0.1234E+01  -2.27798   5.69495
    5630.00   4.750508     0.1211E+01  -2.28590   5.71474
    5650.00   4.752048     0.1205E+01  -2.28814   5.72034
    5670.00   4.753583     0.1190E+01  -2.29351   5.73377
    5690.00   4.755112     0.1169E+01  -2.30124   5.75311
    5710.00   4.756636     0.1164E+01  -2.30314   5.75784
    5730.00   4.758155     0.1150E+01  -2.30863   5.77157
    5750.00   4.759668     0.1136E+01  -2.31382   5.78455
    5770.00   4.761176     0.1121E+01  -2.31961   5.79904
    5790.00   4.762679     0.1113E+01  -2.32280   5.80699
    5810.00   4.764176     0.1096E+01  -2.32952   5.82381
    5830.00   4.765669     0.1084E+01  -2.33419   5.83549
    5850.00   4.767156     0.1072E+01  -2.33904   5.84759
    5870.00   4.768638     0.1055E+01  -2.34577   5.86442
    5890.00   4.770115     0.1044E+01  -2.35036   5.87589
    5910.00   4.771587     0.1033E+01  -2.35516   5.88789
    5930.00   4.773055     0.1022E+01  -2.35963   5.89907
    5950.00   4.774517     0.1008E+01  -2.36575   5.91436
    5970.00   4.775974     0.9994E+00  -2.36947   5.92367
    5990.00   4.777427     0.9877E+00  -2.37459   5.93647
    6010.00   4.778874     0.9762E+00  -2.37967   5.94919
    6030.00   4.780317     0.9647E+00  -2.38482   5.96206
    6050.00   4.781755     0.9508E+00  -2.39111   5.97777
    6070.00   4.783189     0.9403E+00  -2.39595   5.98987
    6090.00   4.784617     0.9292E+00  -2.40109   6.00272
    6110.00   4.786041     0.9172E+00  -2.40674   6.01686
    6130.00   4.787460     0.9084E+00  -2.41093   6.02733
    6150.00   4.788875     0.8987E+00  -2.41558   6.03895
    6170.00   4.790285     0.8899E+00  -2.41988   6.04969
    6190.00   4.791691     0.8792E+00  -2.42510   6.06276
    6210.00   4.793092     0.8700E+00  -2.42968   6.07419
    6230.00   4.794488     0.8583E+00  -2.43557   6.08893
    6250.00   4.795880     0.8470E+00  -2.44133   6.10334
    6270.00   4.797267     0.8374E+00  -2.44626   6.11566
    6290.00   4.798651     0.8286E+00  -2.45089   6.12723
    6310.00   4.800029     0.8186E+00  -2.45613   6.14033
    6330.00   4.801404     0.8114E+00  -2.45999   6.14998
    6350.00   4.802773     0.8009E+00  -2.46562   6.16404
    6370.00   4.804139     0.7938E+00  -2.46949   6.17372
    6390.00   4.805501     0.7828E+00  -2.47558   6.18894
    6420.00   4.807535     0.7703E+00  -2.48257   6.20643
    6460.00   4.810232     0.7523E+00  -2.49281   6.23202
    6500.00   4.812913     0.7357E+00  -2.50249   6.25623
    6540.00   4.815578     0.7192E+00  -2.51235   6.28089
    6580.00   4.818226     0.7039E+00  -2.52170   6.30426
    6620.00   4.820858     0.6878E+00  -2.53173   6.32933
    6660.00   4.823474     0.6728E+00  -2.54133   6.35333
    6700.00   4.826075     0.6582E+00  -2.55084   6.37711
    6740.00   4.828660     0.6434E+00  -2.56074   6.40185
    6780.00   4.831230     0.6295E+00  -2.57023   6.42557
    6820.00   4.833784     0.6157E+00  -2.57984   6.44961
    6860.00   4.836324     0.6027E+00  -2.58911   6.47277
    6900.00   4.838849     0.5895E+00  -2.59876   6.49690
    6940.00   4.841359     0.5769E+00  -2.60814   6.52036
    6980.00   4.843855     0.5646E+00  -2.61747   6.54368
    7020.00   4.846337     0.5523E+00  -2.62702   6.56755
    7060.00   4.848804     0.5409E+00  -2.63610   6.59026
    7100.00   4.851258     0.5294E+00  -2.64542   6.61355
    7140.00   4.853698     0.5184E+00  -2.65456   6.63641
    7180.00   4.856124     0.5075E+00  -2.66382   6.65954
    7220.00   4.858537     0.4969E+00  -2.67291   6.68227
    7260.00   4.860937     0.4866E+00  -2.68208   6.70519
    7300.00   4.863323     0.4766E+00  -2.69107   6.72767
    7340.00   4.865696     0.4667E+00  -2.70019   6.75048
    7380.00   4.868056     0.4573E+00  -2.70906   6.77265
    7420.00   4.870404     0.4477E+00  -2.71826   6.79565
    7460.00   4.872739     0.4384E+00  -2.72733   6.81832
    7500.00   4.875061     0.4297E+00  -2.73603   6.84007
    7540.00   4.877371     0.4211E+00  -2.74484   6.86211
    7580.00   4.879669     0.4130E+00  -2.75330   6.88326
    7620.00   4.881955     0.4048E+00  -2.76203   6.90507
    7660.00   4.884229     0.3968E+00  -2.77070   6.92674
    7700.00   4.886491     0.3889E+00  -2.77942   6.94855
    7740.00   4.888741     0.3813E+00  -2.78794   6.96985
    7780.00   4.890980     0.3739E+00  -2.79647   6.99117
    7820.00   4.893207     0.3666E+00  -2.80501   7.01252
    7860.00   4.895422     0.3595E+00  -2.81346   7.03365
    7900.00   4.897627     0.3526E+00  -2.82190   7.05476
    7940.00   4.899820     0.3459E+00  -2.83031   7.07577
    7980.00   4.902003     0.3393E+00  -2.83863   7.09657
    8020.00   4.904174     0.3327E+00  -2.84710   7.11775
    8060.00   4.906335     0.3265E+00  -2.85538   7.13844
    8100.00   4.908485     0.3204E+00  -2.86350   7.15874
    8140.00   4.910625     0.3144E+00  -2.87180   7.17950
    8180.00   4.912753     0.3086E+00  -2.87985   7.19962
    8220.00   4.914872     0.3029E+00  -2.88795   7.21986
    8260.00   4.916980     0.2973E+00  -2.89607   7.24017
    8300.00   4.919078     0.2918E+00  -2.90409   7.26023
    8340.00   4.921166     0.2864E+00  -2.91224   7.28060
    8380.00   4.923244     0.2812E+00  -2.92023   7.30057
    8420.00   4.925312     0.2762E+00  -2.92802   7.32006
    8460.00   4.927370     0.2712E+00  -2.93598   7.33994
    8500.00   4.929419     0.2663E+00  -2.94383   7.35958
    8540.00   4.931458     0.2616E+00  -2.95164   7.37910
    8580.00   4.933487     0.2569E+00  -2.95942   7.39855
    8620.00   4.935507     0.2524E+00  -2.96717   7.41792
    8660.00   4.937518     0.2479E+00  -2.97486   7.43714
    8700.00   4.939519     0.2436E+00  -2.98255   7.45638
    8740.00   4.941511     0.2393E+00  -2.99021   7.47554
    8780.00   4.943495     0.2352E+00  -2.99787   7.49466
    8820.00   4.945469     0.2310E+00  -3.00554   7.51385
    8860.00   4.947433     0.2271E+00  -3.01308   7.53269
    8900.00   4.949390     0.2231E+00  -3.02065   7.55164
    8940.00   4.951338     0.2194E+00  -3.02805   7.57013
    8980.00   4.953277     0.2155E+00  -3.03567   7.58919
    9020.00   4.955207     0.2120E+00  -3.04295   7.60737
    9060.00   4.957129     0.2084E+00  -3.05030   7.62574
    9100.00   4.959042     0.2048E+00  -3.05794   7.64485
    9140.00   4.960946     0.2014E+00  -3.06511   7.66277
    9180.00   4.962843     0.1981E+00  -3.07239   7.68096
    9220.00   4.964731     0.1948E+00  -3.07957   7.69892
    9260.00   4.966611     0.1916E+00  -3.08683   7.71709
    9300.00   4.968483     0.1884E+00  -3.09403   7.73508
    9340.00   4.970347     0.1853E+00  -3.10125   7.75312
    9380.00   4.972203     0.1823E+00  -3.10837   7.77092
    9420.00   4.974051     0.1794E+00  -3.11550   7.78876
    9460.00   4.975891     0.1764E+00  -3.12264   7.80660
    9500.00   4.977724     0.1736E+00  -3.12970   7.82424
    9540.00   4.979548     0.1708E+00  -3.13673   7.84183
    9580.00   4.981365     0.1681E+00  -3.14372   7.85931
    9620.00   4.983175     0.1654E+00  -3.15073   7.87683
    9660.00   4.984977     0.1628E+00  -3.15765   7.89413
    9700.00   4.986772     0.1602E+00  -3.16457   7.91143
    9740.00   4.988559     0.1576E+00  -3.17174   7.92935
    9780.00   4.990339     0.1552E+00  -3.17844   7.94611
    9820.00   4.992111     0.1528E+00  -3.18522   7.96304
    9860.00   4.993877     0.1504E+00  -3.19202   7.98006
    9900.00   4.995635     0.1481E+00  -3.19880   7.99700
    9940.00   4.997386     0.1458E+00  -3.20561   8.01401
    9980.00   4.999130     0.1435E+00  -3.21234   8.03084
   10020.00   5.000868     0.1413E+00  -3.21905   8.04762
   20000.00   5.301030     0.9498E-02  -4.39159  10.97898
   40000.00   5.602060     0.6100E-03  -5.58386  13.95965
   60000.00   5.778151     0.1212E-03  -6.28573  15.71431
   80000.00   5.903090     0.3839E-04  -6.78504  16.96261
  100000.00   6.000000     0.1571E-04  -7.17294  17.93235
  120000.00   6.079181     0.7568E-05  -7.49023  18.72558
  140000.00   6.146128     0.4079E-05  -7.75866  19.39665
  160000.00   6.204120     0.2387E-05  -7.99133  19.97831
