age =    9.0    [Fe/H] =   -0.25

wavele(nm) log wave(A)   Hlam       log(Hlam/Hlam(V))  Hlam(mag(V)) 
      89.50   2.951823     0.1427E-12 -15.18079  37.95196
      90.50   2.956649     0.2942E-12 -14.86651  37.16627
      91.50   2.961421     0.4601E-12 -14.67230  36.68074
      92.50   2.966142     0.1897E-09 -12.05699  30.14248
      93.50   2.970812     0.2617E-09 -11.91736  29.79339
      94.50   2.975432     0.3693E-09 -11.76779  29.41948
      95.50   2.980003     0.5467E-09 -11.59736  28.99340
      96.50   2.984527     0.7744E-09 -11.44616  28.61540
      97.50   2.989005     0.1012E-08 -11.32986  28.32466
      98.50   2.993436     0.1411E-08 -11.18573  27.96432
      99.50   2.997823     0.1883E-08 -11.06027  27.65067
     100.50   3.002166     0.2725E-08 -10.89973  27.24932
     101.50   3.006466     0.3624E-08 -10.77592  26.93980
     102.50   3.010724     0.4091E-08 -10.72331  26.80828
     103.50   3.014940     0.6549E-08 -10.51897  26.29742
     104.50   3.019116     0.8841E-08 -10.38862  25.97154
     105.50   3.023252     0.1125E-07 -10.28385  25.70963
     106.50   3.027350     0.1473E-07 -10.16684  25.41711
     107.50   3.031409     0.1956E-07 -10.04368  25.10919
     108.50   3.035430     0.2585E-07  -9.92270  24.80674
     109.50   3.039414     0.3228E-07  -9.82618  24.56545
     110.50   3.043362     0.2472E-06  -8.94206  22.35516
     111.50   3.047275     0.4762E-06  -8.65735  21.64337
     112.50   3.051152     0.7251E-06  -8.47474  21.18685
     113.50   3.054996     0.1088E-05  -8.29846  20.74614
     114.50   3.058805     0.1431E-05  -8.17936  20.44840
     115.50   3.062582     0.1617E-05  -8.12634  20.31585
     116.50   3.066326     0.2143E-05  -8.00408  20.01020
     117.50   3.070038     0.2682E-05  -7.90662  19.76656
     118.50   3.073718     0.2711E-05  -7.90194  19.75484
     119.50   3.077368     0.1882E-05  -8.06040  20.15101
     120.50   3.080987     0.1700E-05  -8.10464  20.26160
     121.50   3.084576     0.3068E-06  -8.84835  22.12087
     122.50   3.088136     0.2205E-05  -7.99174  19.97936
     123.50   3.091667     0.5794E-05  -7.57217  18.93042
     124.50   3.095169     0.1031E-04  -7.32201  18.30503
     125.50   3.098644     0.1418E-04  -7.18331  17.95828
     126.50   3.102091     0.1561E-04  -7.14167  17.85417
     127.50   3.105510     0.2071E-04  -7.01892  17.54730
     128.50   3.108903     0.2590E-04  -6.92187  17.30469
     129.50   3.112270     0.3141E-04  -6.83810  17.09524
     130.50   3.115611     0.3354E-04  -6.80955  17.02387
     131.50   3.118926     0.4322E-04  -6.69942  16.74855
     132.50   3.122216     0.4749E-04  -6.65852  16.64630
     133.50   3.125481     0.5310E-04  -6.61002  16.52505
     134.50   3.128722     0.6273E-04  -6.53764  16.34409
     135.50   3.131939     0.7102E-04  -6.48374  16.20934
     136.50   3.135133     0.7811E-04  -6.44245  16.10613
     137.50   3.138303     0.8382E-04  -6.41180  16.02950
     138.50   3.141450     0.9126E-04  -6.37485  15.93713
     139.50   3.144574     0.1032E-03  -6.32149  15.80371
     140.50   3.147676     0.1216E-03  -6.25007  15.62517
     141.50   3.150756     0.1367E-03  -6.19931  15.49828
     142.50   3.153815     0.1531E-03  -6.15022  15.37556
     143.50   3.156852     0.1763E-03  -6.08881  15.22203
     144.20   3.158965     0.2264E-03  -5.98033  14.95082
     144.70   3.160469     0.2051E-03  -6.02325  15.05813
     145.50   3.162863     0.2414E-03  -5.95242  14.88105
     146.50   3.165838     0.2917E-03  -5.87019  14.67548
     147.50   3.168792     0.3278E-03  -5.81948  14.54869
     148.50   3.171726     0.3547E-03  -5.78524  14.46311
     149.50   3.174641     0.4578E-03  -5.67450  14.18625
     150.50   3.177536     0.5454E-03  -5.59840  13.99601
     151.20   3.179552     0.4364E-03  -5.69522  14.23805
     151.70   3.180986     0.5328E-03  -5.60859  14.02147
     152.50   3.183270     0.1040E-02  -5.31820  13.29549
     153.50   3.186108     0.1528E-02  -5.15113  12.87783
     154.50   3.188928     0.1347E-02  -5.20570  13.01426
     155.50   3.191730     0.1955E-02  -5.04400  12.61000
     156.50   3.194514     0.1864E-02  -5.06475  12.66188
     157.50   3.197281     0.3053E-02  -4.85038  12.12595
     158.50   3.200029     0.3641E-02  -4.77388  11.93471
     159.50   3.202761     0.4214E-02  -4.71049  11.77622
     160.50   3.205475     0.4463E-02  -4.68550  11.71374
     161.50   3.208173     0.4992E-02  -4.63688  11.59220
     162.50   3.210853     0.5377E-02  -4.60458  11.51144
     163.50   3.213518     0.6387E-02  -4.52984  11.32459
     164.50   3.216166     0.8589E-02  -4.40120  11.00299
     165.50   3.218798     0.5647E-02  -4.58334  11.45835
     166.50   3.221414     0.9755E-02  -4.34590  10.86475
     167.20   3.223236     0.7094E-02  -4.48423  11.21058
     167.70   3.224533     0.2968E-01  -3.86263   9.65658
     168.50   3.226600     0.3057E-01  -3.84981   9.62453
     169.50   3.229170     0.3382E-01  -3.80591   9.51478
     170.50   3.231725     0.4041E-01  -3.72861   9.32153
     171.50   3.234264     0.5588E-01  -3.58790   8.96975
     172.50   3.236789     0.6819E-01  -3.50141   8.75352
     173.50   3.239300     0.9062E-01  -3.37791   8.44478
     174.50   3.241796     0.1088E+00  -3.29847   8.24618
     175.50   3.244277     0.1618E+00  -3.12602   7.81506
     176.50   3.246745     0.1240E+00  -3.24155   8.10388
     177.50   3.249198     0.1554E+00  -3.14372   7.85931
     178.50   3.251638     0.2009E+00  -3.03225   7.58063
     179.50   3.254065     0.2921E+00  -2.86966   7.17415
     180.50   3.256477     0.2811E+00  -2.88631   7.21576
     181.50   3.258877     0.2447E+00  -2.94655   7.36637
     182.50   3.261263     0.2968E+00  -2.86262   7.15656
     183.50   3.263636     0.3035E+00  -2.85294   7.13234
     184.50   3.265996     0.1801E+00  -3.07973   7.69932
     185.50   3.268344     0.3470E+00  -2.79476   6.98690
     186.50   3.270679     0.4646E+00  -2.66802   6.67004
     187.50   3.273001     0.4663E+00  -2.66644   6.66610
     188.50   3.275311     0.4936E+00  -2.64176   6.60441
     189.50   3.277609     0.6535E+00  -2.51988   6.29970
     190.50   3.279895     0.6103E+00  -2.54957   6.37393
     191.50   3.282169     0.6883E+00  -2.49735   6.24337
     192.50   3.284431     0.5688E+00  -2.58020   6.45051
     193.50   3.286681     0.2844E+00  -2.88126   7.20316
     194.50   3.288920     0.8254E+00  -2.41845   6.04612
     195.50   3.291147     0.8692E+00  -2.39602   5.99004
     196.70   3.293804     0.1145E+01  -2.27628   5.69070
     197.60   3.295787     0.9649E+00  -2.35065   5.87663
     198.40   3.297542     0.1237E+01  -2.24269   5.60673
     199.50   3.299943     0.1341E+01  -2.20761   5.51903
     200.50   3.302114     0.1217E+01  -2.24972   5.62431
     201.50   3.304275     0.1330E+01  -2.21123   5.52806
     202.50   3.306425     0.9649E+00  -2.35068   5.87669
     203.50   3.308564     0.1506E+01  -2.15742   5.39356
     204.50   3.310693     0.1760E+01  -2.08973   5.22433
     205.50   3.312812     0.1677E+01  -2.11048   5.27621
     206.50   3.314920     0.1596E+01  -2.13197   5.32993
     207.40   3.316809     0.1849E+01  -2.06827   5.17067
     207.80   3.317646     0.4380E+01  -1.69371   4.23427
     208.50   3.319106     0.5577E+01  -1.58875   3.97188
     209.50   3.321184     0.5041E+01  -1.63265   4.08163
     210.50   3.323252     0.4737E+01  -1.65960   4.14900
     211.50   3.325310     0.5578E+01  -1.58862   3.97156
     212.50   3.327359     0.4686E+01  -1.66437   4.16092
     213.50   3.329398     0.4455E+01  -1.68630   4.21576
     214.50   3.331427     0.6046E+01  -1.55366   3.88414
     215.50   3.333447     0.5924E+01  -1.56251   3.90627
     216.50   3.335458     0.4909E+01  -1.64414   4.11035
     217.50   3.337459     0.5021E+01  -1.63436   4.08589
     218.50   3.339452     0.6791E+01  -1.50321   3.75802
     219.50   3.341434     0.6688E+01  -1.50985   3.77462
     220.50   3.343409     0.6435E+01  -1.52658   3.81646
     221.50   3.345374     0.4687E+01  -1.66426   4.16065
     222.50   3.347330     0.5821E+01  -1.57016   3.92541
     223.50   3.349277     0.8099E+01  -1.42670   3.56676
     224.50   3.351216     0.7633E+01  -1.45246   3.63115
     225.50   3.353147     0.5426E+01  -1.60066   4.00166
     226.50   3.355068     0.4895E+01  -1.64541   4.11354
     227.50   3.356982     0.5409E+01  -1.60204   4.00509
     228.50   3.358886     0.7907E+01  -1.43714   3.59286
     229.50   3.360783     0.6284E+01  -1.53693   3.84232
     230.50   3.362671     0.8076E+01  -1.42796   3.56989
     231.50   3.364551     0.6652E+01  -1.51216   3.78039
     232.50   3.366423     0.5328E+01  -1.60860   4.02150
     233.50   3.368287     0.4336E+01  -1.69804   4.24511
     234.50   3.370143     0.2567E+01  -1.92569   4.81422
     235.50   3.371991     0.6093E+01  -1.55029   3.87573
     236.50   3.373831     0.2984E+01  -1.86028   4.65071
     237.50   3.375664     0.4318E+01  -1.69986   4.24965
     238.50   3.377488     0.2101E+01  -2.01268   5.03170
     239.50   3.379306     0.2902E+01  -1.87246   4.68114
     240.50   3.381115     0.2935E+01  -1.86748   4.66869
     241.50   3.382917     0.3772E+01  -1.75855   4.39637
     242.50   3.384712     0.7544E+01  -1.45754   3.64385
     243.50   3.386499     0.7563E+01  -1.45643   3.64107
     244.50   3.388279     0.9312E+01  -1.36610   3.41526
     245.50   3.390052     0.9972E+01  -1.33634   3.34085
     246.50   3.391817     0.8411E+01  -1.41027   3.52568
     247.50   3.393575     0.7160E+01  -1.48023   3.70057
     248.50   3.395326     0.3635E+01  -1.77459   4.43648
     249.50   3.397071     0.5034E+01  -1.63324   4.08309
     250.50   3.398808     0.8617E+01  -1.39976   3.49940
     251.30   3.400192     0.2922E+01  -1.86946   4.67366
     251.80   3.401056     0.1927E+01  -2.05031   5.12579
     252.50   3.402261     0.2415E+01  -1.95222   4.88056
     253.50   3.403978     0.5095E+01  -1.62798   4.06995
     254.50   3.405688     0.5519E+01  -1.59328   3.98319
     255.50   3.407391     0.1093E+02  -1.29638   3.24095
     256.50   3.409087     0.7771E+01  -1.44467   3.61168
     257.50   3.410777     0.1034E+02  -1.32066   3.30164
     258.50   3.412461     0.8933E+01  -1.38414   3.46034
     259.50   3.414137     0.7813E+01  -1.44230   3.60575
     260.50   3.415808     0.6475E+01  -1.52388   3.80970
     261.50   3.417472     0.5656E+01  -1.58261   3.95654
     262.50   3.419129     0.8396E+01  -1.41105   3.52761
     263.50   3.420781     0.1570E+02  -1.13915   2.84788
     264.50   3.422426     0.2174E+02  -0.99794   2.49484
     265.50   3.424065     0.3017E+02  -0.85562   2.13904
     266.50   3.425697     0.1920E+02  -1.05194   2.62985
     267.50   3.427324     0.2200E+02  -0.99273   2.48182
     268.50   3.428944     0.2561E+02  -0.92666   2.31665
     269.50   3.430559     0.1811E+02  -1.07720   2.69300
     270.50   3.432167     0.2259E+02  -0.98113   2.45282
     271.50   3.433770     0.1591E+02  -1.13352   2.83380
     272.50   3.435366     0.1260E+02  -1.23469   3.08672
     273.50   3.436957     0.1637E+02  -1.12120   2.80300
     274.50   3.438542     0.8445E+01  -1.40852   3.52131
     275.50   3.440122     0.1230E+02  -1.24523   3.11309
     276.50   3.441695     0.1675E+02  -1.11122   2.77806
     277.50   3.443263     0.1794E+02  -1.08133   2.70331
     278.50   3.444825     0.9733E+01  -1.34690   3.36724
     279.50   3.446382     0.3644E+01  -1.77353   4.43382
     280.50   3.447933     0.4635E+01  -1.66913   4.17282
     281.50   3.449478     0.1548E+02  -1.14533   2.86333
     282.50   3.451018     0.2363E+02  -0.96168   2.40420
     283.50   3.452553     0.2208E+02  -0.99120   2.47801
     284.50   3.454082     0.1533E+02  -1.14951   2.87379
     285.50   3.455606     0.7737E+01  -1.44659   3.61647
     286.50   3.457125     0.2200E+02  -0.99280   2.48199
     287.50   3.458638     0.2975E+02  -0.86164   2.15409
     288.50   3.460146     0.2676E+02  -0.90762   2.26906
     289.50   3.461648     0.3277E+02  -0.81972   2.04929
     291.00   3.463893     0.4484E+02  -0.68350   1.70875
     293.00   3.466868     0.4065E+02  -0.72610   1.81526
     295.00   3.469822     0.3906E+02  -0.74341   1.85852
     297.00   3.472756     0.4123E+02  -0.71991   1.79977
     299.00   3.475671     0.4280E+02  -0.70364   1.75910
     301.00   3.478566     0.4357E+02  -0.69595   1.73988
     303.00   3.481443     0.4617E+02  -0.67082   1.67704
     305.00   3.484300     0.4833E+02  -0.65090   1.62726
     307.00   3.487138     0.4915E+02  -0.64365   1.60913
     309.00   3.489959     0.4607E+02  -0.67171   1.67927
     311.00   3.492760     0.5248E+02  -0.61512   1.53780
     313.00   3.495544     0.4860E+02  -0.64852   1.62129
     315.00   3.498311     0.4775E+02  -0.65614   1.64036
     317.00   3.501059     0.5356E+02  -0.60631   1.51579
     319.00   3.503791     0.4689E+02  -0.66408   1.66020
     321.00   3.506505     0.5220E+02  -0.61745   1.54361
     323.00   3.509202     0.4494E+02  -0.68254   1.70636
     325.00   3.511883     0.6181E+02  -0.54409   1.36022
     327.00   3.514548     0.7133E+02  -0.48185   1.20462
     329.00   3.517196     0.6969E+02  -0.49194   1.22984
     331.00   3.519828     0.6561E+02  -0.51817   1.29542
     333.00   3.522444     0.6740E+02  -0.50651   1.26627
     335.00   3.525045     0.6546E+02  -0.51915   1.29787
     337.00   3.527630     0.4910E+02  -0.64408   1.61019
     339.00   3.530200     0.5709E+02  -0.57860   1.44651
     341.00   3.532754     0.5914E+02  -0.56325   1.40812
     343.00   3.535294     0.6345E+02  -0.53267   1.33169
     345.00   3.537819     0.6801E+02  -0.50259   1.25646
     347.00   3.540329     0.7054E+02  -0.48673   1.21681
     349.00   3.542825     0.7784E+02  -0.44396   1.10989
     351.00   3.545307     0.8226E+02  -0.41993   1.04982
     353.00   3.547775     0.7455E+02  -0.46270   1.15674
     355.00   3.550228     0.8469E+02  -0.40732   1.01829
     357.00   3.552668     0.6398E+02  -0.52911   1.32279
     359.00   3.555094     0.6504E+02  -0.52197   1.30492
     361.00   3.557507     0.7832E+02  -0.44124   1.10310
     363.00   3.559907     0.8034E+02  -0.43020   1.07551
     364.00   3.561101     0.8222E+02  -0.42016   1.05039
     365.00   3.562293     0.8898E+02  -0.38586   0.96466
     367.00   3.564666     0.9360E+02  -0.36384   0.90959
     369.00   3.567026     0.8526E+02  -0.40440   1.01099
     371.00   3.569374     0.9038E+02  -0.37906   0.94765
     373.00   3.571709     0.6322E+02  -0.53425   1.33562
     375.00   3.574031     0.7169E+02  -0.47965   1.19912
     377.00   3.576341     0.9031E+02  -0.37940   0.94850
     379.00   3.578639     0.9345E+02  -0.36457   0.91142
     381.00   3.580925     0.9044E+02  -0.37879   0.94698
     383.00   3.583199     0.5428E+02  -0.60049   1.50124
     385.00   3.585461     0.7519E+02  -0.45896   1.14740
     387.00   3.587711     0.7430E+02  -0.46413   1.16034
     389.00   3.589950     0.8613E+02  -0.40000   0.99999
     391.00   3.592177     0.1025E+03  -0.32430   0.81076
     393.00   3.594393     0.5129E+02  -0.62508   1.56270
     395.00   3.596597     0.8996E+02  -0.38110   0.95274
     397.00   3.598790     0.6218E+02  -0.54146   1.35366
     399.00   3.600973     0.1288E+03  -0.22514   0.56284
     401.00   3.603144     0.1406E+03  -0.18710   0.46775
     403.00   3.605305     0.1394E+03  -0.19083   0.47707
     405.00   3.607455     0.1342E+03  -0.20734   0.51834
     407.00   3.609594     0.1279E+03  -0.22817   0.57042
     409.00   3.611723     0.1527E+03  -0.15116   0.37791
     411.00   3.613842     0.1434E+03  -0.17846   0.44614
     413.00   3.615950     0.1426E+03  -0.18089   0.45223
     415.00   3.618048     0.1402E+03  -0.18832   0.47081
     417.00   3.620136     0.1424E+03  -0.18177   0.45442
     419.00   3.622214     0.1386E+03  -0.19350   0.48375
     421.00   3.624282     0.1399E+03  -0.18925   0.47312
     423.00   3.626340     0.1334E+03  -0.20988   0.52470
     425.00   3.628389     0.1400E+03  -0.18912   0.47279
     427.00   3.630428     0.1323E+03  -0.21350   0.53374
     429.00   3.632457     0.1233E+03  -0.24403   0.61007
     431.00   3.634477     0.1059E+03  -0.31028   0.77571
     433.00   3.636488     0.1532E+03  -0.14991   0.37478
     435.00   3.638489     0.1505E+03  -0.15762   0.39404
     437.00   3.640481     0.1641E+03  -0.12012   0.30031
     439.00   3.642465     0.1477E+03  -0.16564   0.41411
     441.00   3.644439     0.1572E+03  -0.13881   0.34702
     443.00   3.646404     0.1699E+03  -0.10503   0.26256
     445.00   3.648360     0.1704E+03  -0.10371   0.25928
     447.00   3.650307     0.1811E+03  -0.07727   0.19317
     449.00   3.652246     0.1858E+03  -0.06620   0.16549
     451.00   3.654176     0.2080E+03  -0.01705   0.04261
     453.00   3.656098     0.1848E+03  -0.06835   0.17087
     455.00   3.658011     0.1931E+03  -0.04941   0.12353
     457.00   3.659916     0.2077E+03  -0.01776   0.04440
     459.00   3.661813     0.1960E+03  -0.04298   0.10745
     461.00   3.663701     0.2024E+03  -0.02892   0.07231
     463.00   3.665581     0.1982E+03  -0.03805   0.09512
     465.00   3.667453     0.2006E+03  -0.03274   0.08185
     467.00   3.669317     0.2084E+03  -0.01615   0.04039
     469.00   3.671173     0.2050E+03  -0.02334   0.05836
     471.00   3.673021     0.2005E+03  -0.03299   0.08248
     473.00   3.674861     0.2068E+03  -0.01956   0.04889
     475.00   3.676694     0.2115E+03  -0.00990   0.02475
     477.00   3.678518     0.2076E+03  -0.01791   0.04477
     479.00   3.680336     0.2087E+03  -0.01563   0.03907
     481.00   3.682145     0.2092E+03  -0.01464   0.03660
     483.00   3.683947     0.2145E+03  -0.00380   0.00951
     485.00   3.685742     0.2051E+03  -0.02314   0.05785
     487.00   3.687529     0.1883E+03  -0.06037   0.15092
     489.00   3.689309     0.2090E+03  -0.01507   0.03767
     491.00   3.691082     0.2102E+03  -0.01250   0.03125
     493.00   3.692847     0.2069E+03  -0.01930   0.04826
     495.00   3.694605     0.2146E+03  -0.00353   0.00881
     497.00   3.696356     0.2088E+03  -0.01546   0.03865
     499.00   3.698101     0.1955E+03  -0.04390   0.10974
     501.00   3.699838     0.1859E+03  -0.06583   0.16458
     503.00   3.701568     0.1976E+03  -0.03929   0.09823
     505.00   3.703291     0.1975E+03  -0.03964   0.09910
     507.00   3.705008     0.2057E+03  -0.02194   0.05486
     509.00   3.706718     0.1960E+03  -0.04291   0.10728
     511.00   3.708421     0.2002E+03  -0.03367   0.08418
     513.00   3.710117     0.1950E+03  -0.04519   0.11298
     515.00   3.711807     0.1885E+03  -0.05978   0.14945
     517.00   3.713490     0.1722E+03  -0.09906   0.24764
     519.00   3.715167     0.1783E+03  -0.08388   0.20970
     521.00   3.716838     0.1913E+03  -0.05346   0.13365
     523.00   3.718502     0.2061E+03  -0.02098   0.05245
     525.00   3.720159     0.2141E+03  -0.00445   0.01112
     527.00   3.721811     0.1907E+03  -0.05482   0.13705
     529.00   3.723456     0.2176E+03   0.00261  -0.00653
     531.00   3.725095     0.2293E+03   0.02527  -0.06317
     533.00   3.726727     0.2050E+03  -0.02334   0.05835
     535.00   3.728354     0.2235E+03   0.01405  -0.03512
     537.00   3.729974     0.2214E+03   0.01007  -0.02517
     539.00   3.731589     0.2175E+03   0.00241  -0.00602
     541.00   3.733197     0.2141E+03  -0.00449   0.01122
     543.00   3.734800     0.2175E+03   0.00223  -0.00557
     545.00   3.736397     0.2217E+03   0.01054  -0.02634
     547.00   3.737987     0.2168E+03   0.00092  -0.00231
     549.00   3.739572     0.2190E+03   0.00537  -0.01343
     551.00   3.741152     0.2163E+03   0.00000   0.00000
     553.00   3.742725     0.2232E+03   0.01362  -0.03406
     555.00   3.744293     0.2268E+03   0.02058  -0.05146
     557.00   3.745855     0.2216E+03   0.01050  -0.02625
     559.00   3.747412     0.2168E+03   0.00083  -0.00207
     561.00   3.748963     0.2229E+03   0.01306  -0.03266
     563.00   3.750508     0.2225E+03   0.01218  -0.03046
     565.00   3.752048     0.2256E+03   0.01826  -0.04566
     567.00   3.753583     0.2206E+03   0.00856  -0.02139
     569.00   3.755112     0.2269E+03   0.02066  -0.05164
     571.00   3.756636     0.2203E+03   0.00783  -0.01957
     573.00   3.758155     0.2363E+03   0.03838  -0.09595
     575.00   3.759668     0.2298E+03   0.02614  -0.06536
     577.00   3.761176     0.2322E+03   0.03072  -0.07680
     579.00   3.762679     0.2248E+03   0.01673  -0.04183
     581.00   3.764176     0.2324E+03   0.03110  -0.07776
     583.00   3.765669     0.2368E+03   0.03923  -0.09808
     585.00   3.767156     0.2289E+03   0.02448  -0.06120
     587.00   3.768638     0.2281E+03   0.02293  -0.05733
     589.00   3.770115     0.2055E+03  -0.02234   0.05585
     591.00   3.771587     0.2241E+03   0.01537  -0.03841
     593.00   3.773055     0.2260E+03   0.01896  -0.04740
     595.00   3.774517     0.2267E+03   0.02036  -0.05091
     597.00   3.775974     0.2305E+03   0.02749  -0.06873
     599.00   3.777427     0.2279E+03   0.02267  -0.05667
     601.00   3.778874     0.2254E+03   0.01787  -0.04467
     603.00   3.780317     0.2304E+03   0.02738  -0.06844
     605.00   3.781755     0.2347E+03   0.03541  -0.08853
     607.00   3.783189     0.2337E+03   0.03349  -0.08373
     609.00   3.784617     0.2275E+03   0.02182  -0.05455
     611.00   3.786041     0.2285E+03   0.02366  -0.05914
     613.00   3.787461     0.2180E+03   0.00328  -0.00821
     615.00   3.788875     0.2228E+03   0.01280  -0.03200
     617.00   3.790285     0.2106E+03  -0.01168   0.02921
     619.00   3.791691     0.2207E+03   0.00871  -0.02178
     621.00   3.793092     0.2189E+03   0.00507  -0.01267
     623.00   3.794488     0.2130E+03  -0.00684   0.01710
     625.00   3.795880     0.2074E+03  -0.01831   0.04577
     627.00   3.797267     0.2169E+03   0.00117  -0.00292
     629.00   3.798651     0.2210E+03   0.00926  -0.02316
     631.00   3.800029     0.2172E+03   0.00177  -0.00442
     633.00   3.801404     0.2209E+03   0.00911  -0.02277
     635.00   3.802774     0.2229E+03   0.01295  -0.03238
     637.00   3.804139     0.2226E+03   0.01247  -0.03117
     639.00   3.805501     0.2255E+03   0.01806  -0.04514
     641.00   3.806858     0.2215E+03   0.01021  -0.02553
     643.00   3.808211     0.2235E+03   0.01423  -0.03559
     645.00   3.809560     0.2230E+03   0.01326  -0.03315
     647.00   3.810904     0.2226E+03   0.01233  -0.03081
     649.00   3.812245     0.2187E+03   0.00479  -0.01198
     651.00   3.813581     0.2256E+03   0.01827  -0.04567
     653.00   3.814913     0.2266E+03   0.02018  -0.05046
     655.00   3.816241     0.2204E+03   0.00806  -0.02016
     657.00   3.817565     0.2068E+03  -0.01949   0.04873
     659.00   3.818885     0.2209E+03   0.00911  -0.02277
     661.00   3.820201     0.2231E+03   0.01337  -0.03343
     663.00   3.821513     0.2207E+03   0.00866  -0.02166
     665.00   3.822822     0.2186E+03   0.00459  -0.01146
     667.00   3.824126     0.2137E+03  -0.00542   0.01355
     669.00   3.825426     0.2158E+03  -0.00111   0.00276
     671.00   3.826723     0.2078E+03  -0.01743   0.04356
     673.00   3.828015     0.2116E+03  -0.00953   0.02383
     675.00   3.829304     0.2083E+03  -0.01648   0.04120
     677.00   3.830589     0.2094E+03  -0.01408   0.03521
     679.00   3.831870     0.2080E+03  -0.01708   0.04271
     681.00   3.833147     0.2089E+03  -0.01529   0.03823
     683.00   3.834421     0.2116E+03  -0.00960   0.02401
     685.00   3.835690     0.2075E+03  -0.01813   0.04532
     687.00   3.836957     0.2107E+03  -0.01154   0.02886
     689.00   3.838219     0.2144E+03  -0.00395   0.00989
     691.00   3.839478     0.2153E+03  -0.00207   0.00517
     693.00   3.840733     0.2147E+03  -0.00336   0.00840
     695.00   3.841985     0.2147E+03  -0.00334   0.00834
     697.00   3.843233     0.2179E+03   0.00316  -0.00789
     699.00   3.844477     0.2178E+03   0.00287  -0.00717
     701.00   3.845718     0.2156E+03  -0.00139   0.00346
     703.00   3.846955     0.2175E+03   0.00228  -0.00570
     705.00   3.848189     0.2146E+03  -0.00348   0.00869
     707.00   3.849419     0.2062E+03  -0.02093   0.05232
     709.00   3.850646     0.1986E+03  -0.03711   0.09277
     711.00   3.851870     0.1932E+03  -0.04918   0.12294
     713.00   3.853090     0.1886E+03  -0.05967   0.14919
     715.00   3.854306     0.1882E+03  -0.06052   0.15130
     717.00   3.855519     0.1907E+03  -0.05468   0.13669
     719.00   3.856729     0.1877E+03  -0.06172   0.15431
     721.00   3.857935     0.1927E+03  -0.05032   0.12580
     723.00   3.859138     0.1977E+03  -0.03912   0.09780
     725.00   3.860338     0.1999E+03  -0.03443   0.08607
     727.00   3.861534     0.2020E+03  -0.02978   0.07444
     729.00   3.862728     0.2015E+03  -0.03078   0.07696
     731.00   3.863917     0.2083E+03  -0.01650   0.04126
     733.00   3.865104     0.2084E+03  -0.01620   0.04051
     735.00   3.866287     0.2116E+03  -0.00967   0.02418
     737.00   3.867467     0.2164E+03   0.00007  -0.00018
     739.00   3.868644     0.2126E+03  -0.00752   0.01880
     741.00   3.869818     0.2121E+03  -0.00870   0.02174
     743.00   3.870989     0.2164E+03   0.00020  -0.00049
     745.00   3.872156     0.2164E+03   0.00021  -0.00053
     747.00   3.873321     0.2191E+03   0.00543  -0.01357
     749.00   3.874482     0.2179E+03   0.00311  -0.00777
     751.00   3.875640     0.2191E+03   0.00541  -0.01354
     753.00   3.876795     0.2209E+03   0.00899  -0.02249
     755.00   3.877947     0.2218E+03   0.01077  -0.02692
     757.00   3.879096     0.2205E+03   0.00824  -0.02061
     759.00   3.880242     0.2160E+03  -0.00060   0.00149
     761.00   3.881385     0.2121E+03  -0.00863   0.02158
     763.00   3.882524     0.2079E+03  -0.01721   0.04303
     765.00   3.883662     0.2032E+03  -0.02721   0.06803
     767.00   3.884795     0.1944E+03  -0.04647   0.11618
     769.00   3.885926     0.1983E+03  -0.03779   0.09448
     771.00   3.887054     0.1947E+03  -0.04577   0.11442
     773.00   3.888180     0.1954E+03  -0.04419   0.11048
     775.00   3.889302     0.1938E+03  -0.04785   0.11964
     777.00   3.890421     0.1966E+03  -0.04147   0.10367
     779.00   3.891537     0.1968E+03  -0.04102   0.10255
     781.00   3.892651     0.1975E+03  -0.03964   0.09911
     783.00   3.893762     0.1969E+03  -0.04092   0.10231
     785.00   3.894870     0.1952E+03  -0.04471   0.11178
     787.00   3.895975     0.1982E+03  -0.03809   0.09522
     789.00   3.897077     0.1970E+03  -0.04068   0.10169
     791.00   3.898176     0.1929E+03  -0.04978   0.12444
     793.00   3.899273     0.1936E+03  -0.04818   0.12046
     795.00   3.900367     0.1932E+03  -0.04911   0.12278
     797.00   3.901458     0.1980E+03  -0.03851   0.09627
     799.00   3.902547     0.1980E+03  -0.03844   0.09609
     801.00   3.903632     0.2018E+03  -0.03026   0.07566
     803.00   3.904716     0.2024E+03  -0.02883   0.07207
     805.00   3.905796     0.2016E+03  -0.03074   0.07685
     807.00   3.906873     0.2037E+03  -0.02614   0.06534
     809.00   3.907948     0.2020E+03  -0.02976   0.07439
     811.00   3.909021     0.2031E+03  -0.02749   0.06873
     813.00   3.910090     0.2056E+03  -0.02201   0.05502
     815.00   3.911158     0.2062E+03  -0.02086   0.05215
     817.00   3.912222     0.2063E+03  -0.02068   0.05170
     819.00   3.913284     0.2025E+03  -0.02871   0.07176
     821.00   3.914343     0.2007E+03  -0.03264   0.08160
     823.00   3.915400     0.2011E+03  -0.03162   0.07904
     825.00   3.916454     0.2012E+03  -0.03154   0.07885
     827.00   3.917506     0.2022E+03  -0.02940   0.07349
     829.00   3.918555     0.2006E+03  -0.03278   0.08194
     831.00   3.919601     0.1966E+03  -0.04156   0.10389
     833.00   3.920645     0.1951E+03  -0.04489   0.11222
     835.00   3.921686     0.1954E+03  -0.04423   0.11059
     837.00   3.922725     0.1959E+03  -0.04317   0.10793
     839.00   3.923762     0.1912E+03  -0.05365   0.13413
     841.00   3.924796     0.1956E+03  -0.04387   0.10968
     843.00   3.925828     0.1909E+03  -0.05423   0.13557
     845.00   3.926857     0.1880E+03  -0.06092   0.15231
     847.00   3.927883     0.1867E+03  -0.06392   0.15979
     849.00   3.928908     0.1886E+03  -0.05965   0.14913
     851.00   3.929929     0.1814E+03  -0.07658   0.19146
     853.00   3.930949     0.1879E+03  -0.06128   0.15319
     855.00   3.931966     0.1776E+03  -0.08581   0.21453
     857.00   3.932981     0.1908E+03  -0.05454   0.13636
     859.00   3.933993     0.1889E+03  -0.05888   0.14721
     861.00   3.935003     0.1898E+03  -0.05677   0.14192
     863.00   3.936011     0.1920E+03  -0.05179   0.12947
     865.00   3.937016     0.1926E+03  -0.05059   0.12646
     867.00   3.938019     0.1795E+03  -0.08109   0.20271
     869.00   3.939020     0.1885E+03  -0.05977   0.14942
     871.00   3.940018     0.1923E+03  -0.05105   0.12762
     873.00   3.941014     0.1928E+03  -0.04994   0.12485
     875.00   3.942008     0.1908E+03  -0.05460   0.13650
     877.00   3.943000     0.1928E+03  -0.05003   0.12507
     879.00   3.943989     0.1934E+03  -0.04865   0.12161
     881.00   3.944976     0.1904E+03  -0.05549   0.13874
     883.00   3.945961     0.1916E+03  -0.05265   0.13163
     885.00   3.946943     0.1910E+03  -0.05416   0.13540
     887.00   3.947924     0.1864E+03  -0.06476   0.16190
     889.00   3.948902     0.1886E+03  -0.05953   0.14883
     891.00   3.949878     0.1895E+03  -0.05751   0.14377
     893.00   3.950851     0.1872E+03  -0.06293   0.15733
     895.00   3.951823     0.1870E+03  -0.06340   0.15850
     897.00   3.952792     0.1874E+03  -0.06244   0.15611
     899.00   3.953760     0.1875E+03  -0.06211   0.15526
     901.00   3.954725     0.1825E+03  -0.07391   0.18478
     903.00   3.955688     0.1873E+03  -0.06259   0.15649
     905.00   3.956649     0.1902E+03  -0.05590   0.13975
     907.00   3.957607     0.1891E+03  -0.05833   0.14583
     909.00   3.958564     0.1855E+03  -0.06685   0.16713
     911.00   3.959518     0.1869E+03  -0.06342   0.15855
     913.00   3.960471     0.1885E+03  -0.05987   0.14969
     915.00   3.961421     0.1877E+03  -0.06159   0.15398
     917.00   3.962369     0.1871E+03  -0.06300   0.15750
     919.00   3.963315     0.1877E+03  -0.06157   0.15394
     921.00   3.964260     0.1837E+03  -0.07112   0.17781
     923.00   3.965202     0.1821E+03  -0.07494   0.18734
     925.00   3.966142     0.1815E+03  -0.07616   0.19040
     927.00   3.967080     0.1825E+03  -0.07384   0.18460
     929.00   3.968016     0.1809E+03  -0.07760   0.19399
     931.00   3.968950     0.1816E+03  -0.07612   0.19031
     933.00   3.969882     0.1813E+03  -0.07683   0.19207
     935.00   3.970812     0.1808E+03  -0.07803   0.19507
     937.00   3.971740     0.1784E+03  -0.08366   0.20916
     939.00   3.972666     0.1804E+03  -0.07884   0.19709
     941.00   3.973590     0.1774E+03  -0.08619   0.21546
     943.00   3.974512     0.1799E+03  -0.08013   0.20032
     945.00   3.975432     0.1778E+03  -0.08510   0.21275
     947.00   3.976350     0.1799E+03  -0.07999   0.19998
     949.00   3.977266     0.1799E+03  -0.08006   0.20015
     951.00   3.978180     0.1783E+03  -0.08406   0.21015
     953.00   3.979093     0.1786E+03  -0.08332   0.20831
     955.00   3.980003     0.1753E+03  -0.09134   0.22835
     957.00   3.980912     0.1769E+03  -0.08747   0.21868
     959.00   3.981819     0.1785E+03  -0.08355   0.20888
     961.00   3.982723     0.1767E+03  -0.08798   0.21994
     963.00   3.983626     0.1769E+03  -0.08729   0.21822
     965.00   3.984527     0.1747E+03  -0.09287   0.23219
     967.00   3.985426     0.1747E+03  -0.09284   0.23211
     969.00   3.986324     0.1761E+03  -0.08948   0.22371
     971.00   3.987219     0.1747E+03  -0.09277   0.23192
     973.00   3.988113     0.1738E+03  -0.09521   0.23801
     975.00   3.989005     0.1732E+03  -0.09663   0.24157
     977.00   3.989895     0.1734E+03  -0.09619   0.24047
     979.00   3.990783     0.1716E+03  -0.10062   0.25156
     981.00   3.991669     0.1741E+03  -0.09432   0.23580
     983.00   3.992553     0.1731E+03  -0.09680   0.24201
     985.00   3.993436     0.1735E+03  -0.09574   0.23936
     987.00   3.994317     0.1724E+03  -0.09866   0.24666
     989.00   3.995196     0.1719E+03  -0.09987   0.24967
     991.00   3.996074     0.1715E+03  -0.10093   0.25232
     993.00   3.996949     0.1716E+03  -0.10053   0.25133
     995.00   3.997823     0.1715E+03  -0.10077   0.25192
     997.00   3.998695     0.1714E+03  -0.10117   0.25292
     999.00   3.999566     0.1708E+03  -0.10256   0.25640
    1003.00   4.001301     0.1694E+03  -0.10629   0.26572
    1008.00   4.003461     0.1676E+03  -0.11092   0.27729
    1013.00   4.005610     0.1680E+03  -0.10983   0.27459
    1018.00   4.007748     0.1661E+03  -0.11471   0.28677
    1023.00   4.009875     0.1658E+03  -0.11546   0.28864
    1028.00   4.011993     0.1656E+03  -0.11621   0.29051
    1033.00   4.014100     0.1632E+03  -0.12232   0.30579
    1038.00   4.016197     0.1622E+03  -0.12504   0.31261
    1043.00   4.018284     0.1624E+03  -0.12447   0.31117
    1048.00   4.020361     0.1610E+03  -0.12834   0.32085
    1053.00   4.022429     0.1606E+03  -0.12928   0.32321
    1058.00   4.024486     0.1588E+03  -0.13433   0.33584
    1063.00   4.026533     0.1579E+03  -0.13666   0.34164
    1068.00   4.028571     0.1558E+03  -0.14270   0.35675
    1073.00   4.030600     0.1558E+03  -0.14261   0.35653
    1078.00   4.032619     0.1544E+03  -0.14648   0.36620
    1083.00   4.034628     0.1524E+03  -0.15225   0.38062
    1088.00   4.036629     0.1516E+03  -0.15438   0.38595
    1093.00   4.038620     0.1509E+03  -0.15635   0.39087
    1098.00   4.040603     0.1491E+03  -0.16157   0.40392
    1103.00   4.042576     0.1488E+03  -0.16251   0.40629
    1108.00   4.044539     0.1478E+03  -0.16542   0.41356
    1113.00   4.046495     0.1470E+03  -0.16774   0.41934
    1118.00   4.048442     0.1459E+03  -0.17111   0.42778
    1123.00   4.050380     0.1457E+03  -0.17160   0.42900
    1128.00   4.052309     0.1442E+03  -0.17616   0.44041
    1133.00   4.054230     0.1439E+03  -0.17716   0.44290
    1138.00   4.056142     0.1429E+03  -0.18011   0.45028
    1143.00   4.058046     0.1416E+03  -0.18394   0.45986
    1148.00   4.059942     0.1426E+03  -0.18110   0.45275
    1153.00   4.061830     0.1422E+03  -0.18229   0.45572
    1158.00   4.063708     0.1407E+03  -0.18669   0.46672
    1163.00   4.065579     0.1391E+03  -0.19193   0.47981
    1168.00   4.067443     0.1389E+03  -0.19234   0.48085
    1173.00   4.069298     0.1394E+03  -0.19083   0.47707
    1178.00   4.071145     0.1374E+03  -0.19730   0.49324
    1183.00   4.072985     0.1365E+03  -0.20010   0.50026
    1188.00   4.074817     0.1349E+03  -0.20501   0.51253
    1193.00   4.076640     0.1365E+03  -0.20015   0.50038
    1198.00   4.078457     0.1328E+03  -0.21187   0.52968
    1203.00   4.080266     0.1344E+03  -0.20666   0.51665
    1208.00   4.082067     0.1332E+03  -0.21053   0.52634
    1213.00   4.083861     0.1332E+03  -0.21067   0.52668
    1218.00   4.085648     0.1332E+03  -0.21071   0.52677
    1223.00   4.087426     0.1323E+03  -0.21346   0.53364
    1228.00   4.089198     0.1314E+03  -0.21645   0.54112
    1233.00   4.090963     0.1308E+03  -0.21864   0.54660
    1238.00   4.092721     0.1302E+03  -0.22037   0.55092
    1243.00   4.094471     0.1292E+03  -0.22395   0.55988
    1248.00   4.096214     0.1290E+03  -0.22469   0.56174
    1253.00   4.097951     0.1279E+03  -0.22836   0.57089
    1258.00   4.099681     0.1275E+03  -0.22977   0.57443
    1263.00   4.101403     0.1268E+03  -0.23193   0.57983
    1268.00   4.103119     0.1259E+03  -0.23522   0.58805
    1273.00   4.104828     0.1257E+03  -0.23567   0.58918
    1278.00   4.106531     0.1255E+03  -0.23634   0.59085
    1283.00   4.108227     0.1220E+03  -0.24873   0.62182
    1288.00   4.109916     0.1235E+03  -0.24332   0.60830
    1293.00   4.111598     0.1225E+03  -0.24709   0.61773
    1298.00   4.113275     0.1231E+03  -0.24495   0.61237
    1303.00   4.114944     0.1219E+03  -0.24927   0.62317
    1308.00   4.116608     0.1219E+03  -0.24903   0.62256
    1313.00   4.118265     0.1201E+03  -0.25554   0.63885
    1318.00   4.119915     0.1197E+03  -0.25713   0.64282
    1323.00   4.121560     0.1197E+03  -0.25704   0.64260
    1328.00   4.123198     0.1181E+03  -0.26289   0.65723
    1333.00   4.124830     0.1183E+03  -0.26207   0.65517
    1338.00   4.126456     0.1174E+03  -0.26535   0.66337
    1343.00   4.128076     0.1176E+03  -0.26483   0.66208
    1348.00   4.129690     0.1168E+03  -0.26763   0.66908
    1353.00   4.131298     0.1163E+03  -0.26961   0.67403
    1358.00   4.132900     0.1148E+03  -0.27508   0.68771
    1363.00   4.134496     0.1144E+03  -0.27663   0.69157
    1368.00   4.136086     0.1147E+03  -0.27539   0.68847
    1373.00   4.137671     0.1149E+03  -0.27471   0.68677
    1378.00   4.139249     0.1146E+03  -0.27613   0.69032
    1383.00   4.140822     0.1144E+03  -0.27657   0.69143
    1388.00   4.142389     0.1134E+03  -0.28050   0.70124
    1393.00   4.143951     0.1093E+03  -0.29664   0.74161
    1398.00   4.145507     0.1095E+03  -0.29587   0.73967
    1403.00   4.147058     0.1084E+03  -0.30023   0.75058
    1408.00   4.148602     0.1089E+03  -0.29811   0.74527
    1413.00   4.150142     0.1079E+03  -0.30207   0.75519
    1418.00   4.151676     0.1084E+03  -0.30007   0.75018
    1423.00   4.153205     0.1073E+03  -0.30446   0.76114
    1428.00   4.154728     0.1062E+03  -0.30891   0.77228
    1433.00   4.156246     0.1077E+03  -0.30281   0.75702
    1438.00   4.157759     0.1080E+03  -0.30155   0.75388
    1443.00   4.159266     0.1061E+03  -0.30959   0.77398
    1448.00   4.160769     0.1076E+03  -0.30340   0.75849
    1453.00   4.162266     0.1066E+03  -0.30756   0.76891
    1457.00   4.163460     0.1070E+03  -0.30593   0.76483
    1462.00   4.164948     0.1046E+03  -0.31570   0.78925
    1468.00   4.166726     0.1047E+03  -0.31499   0.78747
    1473.00   4.168202     0.1038E+03  -0.31894   0.79736
    1478.00   4.169674     0.1043E+03  -0.31668   0.79170
    1483.00   4.171141     0.1045E+03  -0.31584   0.78959
    1488.00   4.172603     0.1037E+03  -0.31925   0.79813
    1493.00   4.174060     0.1055E+03  -0.31187   0.77967
    1498.00   4.175512     0.1048E+03  -0.31490   0.78726
    1503.00   4.176959     0.1037E+03  -0.31932   0.79829
    1508.00   4.178401     0.1037E+03  -0.31950   0.79874
    1513.00   4.179839     0.1051E+03  -0.31342   0.78356
    1518.00   4.181272     0.1053E+03  -0.31286   0.78215
    1523.00   4.182700     0.1050E+03  -0.31376   0.78440
    1528.00   4.184123     0.1055E+03  -0.31182   0.77956
    1533.00   4.185542     0.1051E+03  -0.31359   0.78399
    1538.00   4.186956     0.1041E+03  -0.31775   0.79438
    1543.00   4.188366     0.1046E+03  -0.31573   0.78931
    1548.00   4.189771     0.1047E+03  -0.31526   0.78814
    1553.00   4.191172     0.1040E+03  -0.31827   0.79569
    1558.00   4.192567     0.1016E+03  -0.32811   0.82027
    1563.00   4.193959     0.1029E+03  -0.32275   0.80686
    1568.00   4.195346     0.1022E+03  -0.32558   0.81396
    1573.00   4.196729     0.1034E+03  -0.32059   0.80149
    1578.00   4.198107     0.9715E+02  -0.34770   0.86926
    1583.00   4.199481     0.9962E+02  -0.33680   0.84201
    1588.00   4.200850     0.9897E+02  -0.33964   0.84909
    1593.00   4.202216     0.1013E+03  -0.32968   0.82420
    1598.00   4.203577     0.1023E+03  -0.32545   0.81362
    1605.00   4.205475     0.9938E+02  -0.33784   0.84460
    1615.00   4.208173     0.1004E+03  -0.33329   0.83323
    1625.00   4.210854     0.9796E+02  -0.34411   0.86027
    1635.00   4.213518     0.9956E+02  -0.33703   0.84258
    1645.00   4.216166     0.9595E+02  -0.35307   0.88267
    1655.00   4.218798     0.9703E+02  -0.34822   0.87055
    1665.00   4.221415     0.9421E+02  -0.36104   0.90261
    1675.00   4.224015     0.9378E+02  -0.36303   0.90758
    1685.00   4.226600     0.9240E+02  -0.36946   0.92364
    1695.00   4.229170     0.9146E+02  -0.37392   0.93480
    1705.00   4.231725     0.8941E+02  -0.38374   0.95935
    1715.00   4.234264     0.8791E+02  -0.39109   0.97773
    1725.00   4.236789     0.8605E+02  -0.40039   1.00098
    1735.00   4.239300     0.8354E+02  -0.41323   1.03306
    1745.00   4.241796     0.8270E+02  -0.41762   1.04405
    1755.00   4.244277     0.8144E+02  -0.42430   1.06075
    1765.00   4.246745     0.7986E+02  -0.43283   1.08207
    1775.00   4.249198     0.7814E+02  -0.44228   1.10569
    1785.00   4.251638     0.7710E+02  -0.44806   1.12014
    1795.00   4.254065     0.7552E+02  -0.45704   1.14261
    1805.00   4.256477     0.7392E+02  -0.46638   1.16595
    1815.00   4.258877     0.7243E+02  -0.47520   1.18799
    1825.00   4.261263     0.7140E+02  -0.48143   1.20357
    1835.00   4.263636     0.7027E+02  -0.48835   1.22087
    1845.00   4.265996     0.6884E+02  -0.49730   1.24326
    1855.00   4.268344     0.6811E+02  -0.50190   1.25475
    1865.00   4.270679     0.6654E+02  -0.51207   1.28017
    1875.00   4.273001     0.6492E+02  -0.52274   1.30685
    1885.00   4.275311     0.6449E+02  -0.52566   1.31416
    1895.00   4.277609     0.6232E+02  -0.54054   1.35135
    1905.00   4.279895     0.6229E+02  -0.54068   1.35171
    1915.00   4.282169     0.6096E+02  -0.55008   1.37519
    1925.00   4.284431     0.5990E+02  -0.55768   1.39420
    1935.00   4.286681     0.5829E+02  -0.56955   1.42386
    1945.00   4.288919     0.5678E+02  -0.58094   1.45234
    1955.00   4.291147     0.5645E+02  -0.58350   1.45876
    1965.00   4.293363     0.5540E+02  -0.59163   1.47906
    1975.00   4.295567     0.5407E+02  -0.60217   1.50542
    1985.00   4.297760     0.5331E+02  -0.60834   1.52084
    1995.00   4.299943     0.5253E+02  -0.61471   1.53677
    2005.00   4.302114     0.5205E+02  -0.61870   1.54676
    2015.00   4.304275     0.5127E+02  -0.62525   1.56312
    2025.00   4.306425     0.5004E+02  -0.63578   1.58945
    2035.00   4.308564     0.4925E+02  -0.64273   1.60682
    2045.00   4.310693     0.4889E+02  -0.64595   1.61486
    2055.00   4.312812     0.4802E+02  -0.65369   1.63422
    2065.00   4.314920     0.4714E+02  -0.66179   1.65446
    2075.00   4.317018     0.4650E+02  -0.66765   1.66912
    2085.00   4.319106     0.4576E+02  -0.67468   1.68669
    2095.00   4.321184     0.4487E+02  -0.68314   1.70784
    2105.00   4.323252     0.4448E+02  -0.68693   1.71733
    2115.00   4.325311     0.4369E+02  -0.69476   1.73689
    2125.00   4.327359     0.4300E+02  -0.70167   1.75419
    2135.00   4.329398     0.4251E+02  -0.70661   1.76652
    2145.00   4.331428     0.4183E+02  -0.71368   1.78420
    2155.00   4.333447     0.4116E+02  -0.72069   1.80171
    2165.00   4.335458     0.4025E+02  -0.73040   1.82599
    2175.00   4.337460     0.3975E+02  -0.73585   1.83962
    2185.00   4.339452     0.3922E+02  -0.74166   1.85415
    2195.00   4.341434     0.3870E+02  -0.74742   1.86854
    2205.00   4.343409     0.3779E+02  -0.75778   1.89444
    2215.00   4.345374     0.3758E+02  -0.76019   1.90047
    2225.00   4.347330     0.3672E+02  -0.77024   1.92559
    2235.00   4.349277     0.3624E+02  -0.77599   1.93999
    2245.00   4.351216     0.3570E+02  -0.78242   1.95604
    2255.00   4.353147     0.3523E+02  -0.78827   1.97067
    2265.00   4.355068     0.3452E+02  -0.79704   1.99261
    2275.00   4.356981     0.3421E+02  -0.80096   2.00241
    2285.00   4.358886     0.3352E+02  -0.80980   2.02451
    2295.00   4.360783     0.2785E+02  -0.89036   2.22591
    2305.00   4.362671     0.3027E+02  -0.85419   2.13547
    2315.00   4.364551     0.3009E+02  -0.85671   2.14178
    2325.00   4.366423     0.2582E+02  -0.92315   2.30787
    2335.00   4.368287     0.2787E+02  -0.89004   2.22510
    2345.00   4.370143     0.2629E+02  -0.91532   2.28830
    2355.00   4.371991     0.2401E+02  -0.95474   2.38686
    2365.00   4.373831     0.2589E+02  -0.92196   2.30491
    2375.00   4.375664     0.2462E+02  -0.94390   2.35975
    2385.00   4.377488     0.2270E+02  -0.97902   2.44756
    2395.00   4.379306     0.2418E+02  -0.95162   2.37905
    2405.00   4.381115     0.2349E+02  -0.96425   2.41063
    2415.00   4.382917     0.2163E+02  -0.99999   2.49997
    2425.00   4.384712     0.2282E+02  -0.97676   2.44190
    2435.00   4.386499     0.2209E+02  -0.99087   2.47717
    2445.00   4.388279     0.2183E+02  -0.99599   2.48996
    2455.00   4.390052     0.2127E+02  -1.00735   2.51838
    2465.00   4.391817     0.2143E+02  -1.00419   2.51049
    2475.00   4.393575     0.2086E+02  -1.01581   2.53953
    2485.00   4.395327     0.1882E+02  -1.06056   2.65139
    2495.00   4.397071     0.1848E+02  -1.06849   2.67123
    2505.00   4.398808     0.1876E+02  -1.06190   2.65474
    2515.00   4.400538     0.1784E+02  -1.08371   2.70926
    2525.00   4.402262     0.1830E+02  -1.07274   2.68185
    2535.00   4.403978     0.1834E+02  -1.07165   2.67913
    2545.00   4.405688     0.1812E+02  -1.07692   2.69231
    2555.00   4.407391     0.1806E+02  -1.07846   2.69614
    2565.00   4.409087     0.1816E+02  -1.07591   2.68977
    2575.00   4.410777     0.1827E+02  -1.07348   2.68370
    2585.00   4.412460     0.1774E+02  -1.08626   2.71566
    2595.00   4.414137     0.1782E+02  -1.08424   2.71060
    2605.00   4.415808     0.1782E+02  -1.08434   2.71086
    2615.00   4.417472     0.1751E+02  -1.09177   2.72943
    2625.00   4.419129     0.1722E+02  -1.09900   2.74749
    2635.00   4.420781     0.1725E+02  -1.09829   2.74572
    2645.00   4.422426     0.1710E+02  -1.10210   2.75524
    2655.00   4.424065     0.1687E+02  -1.10812   2.77029
    2665.00   4.425697     0.1659E+02  -1.11528   2.78821
    2675.00   4.427324     0.1673E+02  -1.11176   2.77940
    2685.00   4.428945     0.1654E+02  -1.11658   2.79144
    2695.00   4.430559     0.1623E+02  -1.12472   2.81181
    2705.00   4.432167     0.1621E+02  -1.12549   2.81371
    2715.00   4.433770     0.1604E+02  -1.12985   2.82462
    2725.00   4.435367     0.1594E+02  -1.13273   2.83182
    2735.00   4.436957     0.1566E+02  -1.14041   2.85102
    2745.00   4.438542     0.1561E+02  -1.14177   2.85442
    2755.00   4.440122     0.1549E+02  -1.14521   2.86302
    2765.00   4.441695     0.1528E+02  -1.15087   2.87718
    2775.00   4.443263     0.1508E+02  -1.15672   2.89179
    2785.00   4.444825     0.1501E+02  -1.15890   2.89725
    2795.00   4.446382     0.1492E+02  -1.16141   2.90353
    2805.00   4.447933     0.1475E+02  -1.16636   2.91590
    2815.00   4.449478     0.1455E+02  -1.17227   2.93069
    2825.00   4.451018     0.1443E+02  -1.17579   2.93948
    2835.00   4.452553     0.1433E+02  -1.17891   2.94729
    2845.00   4.454082     0.1415E+02  -1.18426   2.96065
    2855.00   4.455606     0.1400E+02  -1.18896   2.97239
    2865.00   4.457125     0.1386E+02  -1.19338   2.98346
    2875.00   4.458638     0.1370E+02  -1.19832   2.99579
    2885.00   4.460146     0.1358E+02  -1.20210   3.00524
    2895.00   4.461648     0.1345E+02  -1.20652   3.01630
    2905.00   4.463146     0.1330E+02  -1.21135   3.02838
    2915.00   4.464639     0.1317E+02  -1.21545   3.03862
    2925.00   4.466126     0.1297E+02  -1.22224   3.05559
    2935.00   4.467608     0.1290E+02  -1.22439   3.06097
    2945.00   4.469085     0.1274E+02  -1.22999   3.07497
    2955.00   4.470557     0.1261E+02  -1.23427   3.08566
    2965.00   4.472025     0.1251E+02  -1.23805   3.09512
    2975.00   4.473487     0.1237E+02  -1.24261   3.10652
    2985.00   4.474944     0.1223E+02  -1.24775   3.11937
    2995.00   4.476397     0.1209E+02  -1.25258   3.13146
    3005.00   4.477844     0.1197E+02  -1.25706   3.14266
    3015.00   4.479287     0.1187E+02  -1.26065   3.15163
    3025.00   4.480725     0.1173E+02  -1.26576   3.16439
    3035.00   4.482159     0.1158E+02  -1.27143   3.17858
    3045.00   4.483587     0.1151E+02  -1.27404   3.18510
    3055.00   4.485011     0.1139E+02  -1.27866   3.19665
    3065.00   4.486430     0.1127E+02  -1.28318   3.20795
    3075.00   4.487845     0.1118E+02  -1.28682   3.21706
    3085.00   4.489255     0.1104E+02  -1.29232   3.23080
    3095.00   4.490661     0.1094E+02  -1.29627   3.24068
    3105.00   4.492062     0.1085E+02  -1.29979   3.24947
    3115.00   4.493458     0.1069E+02  -1.30630   3.26574
    3125.00   4.494850     0.1062E+02  -1.30914   3.27285
    3135.00   4.496238     0.1051E+02  -1.31345   3.28363
    3145.00   4.497621     0.1040E+02  -1.31803   3.29507
    3155.00   4.499000     0.1028E+02  -1.32314   3.30786
    3165.00   4.500374     0.1017E+02  -1.32776   3.31939
    3175.00   4.501744     0.1008E+02  -1.33151   3.32876
    3185.00   4.503109     0.9978E+01  -1.33610   3.34024
    3195.00   4.504471     0.9884E+01  -1.34022   3.35055
    3210.00   4.506505     0.9721E+01  -1.34744   3.36860
    3230.00   4.509202     0.9515E+01  -1.35672   3.39179
    3250.00   4.511883     0.9317E+01  -1.36587   3.41467
    3270.00   4.514548     0.9117E+01  -1.37527   3.43818
    3290.00   4.517196     0.8909E+01  -1.38529   3.46324
    3310.00   4.519828     0.8735E+01  -1.39386   3.48464
    3330.00   4.522444     0.8544E+01  -1.40346   3.50865
    3350.00   4.525045     0.8382E+01  -1.41181   3.52952
    3370.00   4.527630     0.8200E+01  -1.42134   3.55336
    3390.00   4.530200     0.8018E+01  -1.43105   3.57761
    3410.00   4.532754     0.7844E+01  -1.44062   3.60155
    3430.00   4.535294     0.7698E+01  -1.44875   3.62188
    3450.00   4.537819     0.7543E+01  -1.45761   3.64402
    3470.00   4.540329     0.7382E+01  -1.46695   3.66738
    3490.00   4.542826     0.7231E+01  -1.47596   3.68990
    3510.00   4.545307     0.7086E+01  -1.48472   3.71180
    3530.00   4.547775     0.6929E+01  -1.49444   3.73610
    3550.00   4.550228     0.6796E+01  -1.50289   3.75721
    3570.00   4.552669     0.6654E+01  -1.51208   3.78020
    3590.00   4.555095     0.6519E+01  -1.52094   3.80234
    3610.00   4.557508     0.6397E+01  -1.52917   3.82292
    3630.00   4.559907     0.6267E+01  -1.53807   3.84518
    3650.00   4.562293     0.6130E+01  -1.54770   3.86924
    3670.00   4.564666     0.6004E+01  -1.55668   3.89171
    3690.00   4.567026     0.5869E+01  -1.56657   3.91643
    3710.00   4.569374     0.5747E+01  -1.57566   3.93915
    3730.00   4.571709     0.5650E+01  -1.58306   3.95765
    3750.00   4.574031     0.5515E+01  -1.59358   3.98396
    3770.00   4.576342     0.5433E+01  -1.60011   4.00027
    3790.00   4.578639     0.5324E+01  -1.60890   4.02225
    3810.00   4.580925     0.5226E+01  -1.61698   4.04245
    3830.00   4.583199     0.5132E+01  -1.62486   4.06216
    3850.00   4.585461     0.5036E+01  -1.63308   4.08269
    3870.00   4.587711     0.4926E+01  -1.64266   4.10665
    3890.00   4.589950     0.4838E+01  -1.65050   4.12624
    3910.00   4.592176     0.4750E+01  -1.65842   4.14605
    3930.00   4.594393     0.4661E+01  -1.66665   4.16663
    3950.00   4.596597     0.4560E+01  -1.67613   4.19032
    3970.00   4.598790     0.4480E+01  -1.68386   4.20965
    3990.00   4.600973     0.4379E+01  -1.69375   4.23438
    4010.00   4.603145     0.4309E+01  -1.70076   4.25189
    4030.00   4.605305     0.4237E+01  -1.70806   4.27014
    4050.00   4.607455     0.4149E+01  -1.71724   4.29310
    4070.00   4.609594     0.4080E+01  -1.72450   4.31124
    4090.00   4.611723     0.4007E+01  -1.73235   4.33088
    4110.00   4.613842     0.3937E+01  -1.73995   4.34987
    4130.00   4.615950     0.3871E+01  -1.74729   4.36823
    4150.00   4.618048     0.3800E+01  -1.75540   4.38850
    4170.00   4.620136     0.3732E+01  -1.76314   4.40785
    4190.00   4.622214     0.3664E+01  -1.77113   4.42783
    4210.00   4.624282     0.3596E+01  -1.77937   4.44842
    4230.00   4.626340     0.3548E+01  -1.78512   4.46280
    4250.00   4.628389     0.3480E+01  -1.79353   4.48384
    4270.00   4.630428     0.3427E+01  -1.80028   4.50071
    4290.00   4.632457     0.3261E+01  -1.82184   4.55460
    4310.00   4.634478     0.3093E+01  -1.84470   4.61174
    4330.00   4.636488     0.3088E+01  -1.84552   4.61381
    4350.00   4.638489     0.2946E+01  -1.86587   4.66467
    4370.00   4.640481     0.2863E+01  -1.87830   4.69575
    4390.00   4.642465     0.2802E+01  -1.88769   4.71922
    4410.00   4.644439     0.2685E+01  -1.90613   4.76531
    4430.00   4.646404     0.2646E+01  -1.91253   4.78133
    4450.00   4.648360     0.2596E+01  -1.92080   4.80200
    4470.00   4.650308     0.2501E+01  -1.93702   4.84254
    4490.00   4.652246     0.2500E+01  -1.93715   4.84287
    4510.00   4.654177     0.2435E+01  -1.94871   4.87177
    4530.00   4.656098     0.2369E+01  -1.96060   4.90150
    4550.00   4.658011     0.2359E+01  -1.96249   4.90623
    4570.00   4.659916     0.2330E+01  -1.96781   4.91953
    4590.00   4.661813     0.2253E+01  -1.98247   4.95617
    4610.00   4.663701     0.2258E+01  -1.98136   4.95339
    4630.00   4.665581     0.2213E+01  -1.99014   4.97534
    4650.00   4.667453     0.2190E+01  -1.99469   4.98672
    4670.00   4.669317     0.2177E+01  -1.99734   4.99335
    4690.00   4.671173     0.2135E+01  -2.00575   5.01437
    4710.00   4.673021     0.2098E+01  -2.01330   5.03324
    4730.00   4.674861     0.2101E+01  -2.01268   5.03169
    4750.00   4.676694     0.2053E+01  -2.02266   5.05664
    4770.00   4.678518     0.2027E+01  -2.02832   5.07080
    4790.00   4.680336     0.2007E+01  -2.03252   5.08129
    4810.00   4.682145     0.1957E+01  -2.04344   5.10859
    4830.00   4.683947     0.1964E+01  -2.04210   5.10524
    4850.00   4.685741     0.1927E+01  -2.05027   5.12567
    4870.00   4.687529     0.1889E+01  -2.05887   5.14716
    4890.00   4.689309     0.1864E+01  -2.06459   5.16149
    4910.00   4.691082     0.1842E+01  -2.06996   5.17489
    4930.00   4.692847     0.1812E+01  -2.07689   5.19224
    4950.00   4.694605     0.1782E+01  -2.08422   5.21056
    4970.00   4.696356     0.1769E+01  -2.08736   5.21841
    4990.00   4.698101     0.1744E+01  -2.09363   5.23408
    5010.00   4.699838     0.1722E+01  -2.09900   5.24749
    5030.00   4.701568     0.1700E+01  -2.10470   5.26175
    5050.00   4.703291     0.1663E+01  -2.11419   5.28546
    5070.00   4.705008     0.1650E+01  -2.11765   5.29411
    5090.00   4.706717     0.1630E+01  -2.12293   5.30732
    5110.00   4.708421     0.1600E+01  -2.13089   5.32723
    5130.00   4.710117     0.1589E+01  -2.13395   5.33487
    5150.00   4.711807     0.1561E+01  -2.14163   5.35408
    5170.00   4.713490     0.1555E+01  -2.14329   5.35822
    5190.00   4.715167     0.1526E+01  -2.15154   5.37885
    5210.00   4.716838     0.1510E+01  -2.15620   5.39050
    5230.00   4.718502     0.1484E+01  -2.16361   5.40903
    5250.00   4.720160     0.1473E+01  -2.16705   5.41762
    5270.00   4.721810     0.1465E+01  -2.16923   5.42306
    5290.00   4.723455     0.1431E+01  -2.17940   5.44851
    5310.00   4.725095     0.1413E+01  -2.18486   5.46216
    5330.00   4.726727     0.1401E+01  -2.18871   5.47178
    5350.00   4.728354     0.1384E+01  -2.19387   5.48467
    5370.00   4.729974     0.1369E+01  -2.19873   5.49684
    5390.00   4.731589     0.1354E+01  -2.20362   5.50906
    5410.00   4.733197     0.1337E+01  -2.20885   5.52214
    5430.00   4.734800     0.1313E+01  -2.21679   5.54199
    5450.00   4.736397     0.1307E+01  -2.21890   5.54725
    5470.00   4.737988     0.1285E+01  -2.22607   5.56517
    5490.00   4.739573     0.1272E+01  -2.23062   5.57656
    5510.00   4.741152     0.1255E+01  -2.23647   5.59117
    5530.00   4.742725     0.1257E+01  -2.23594   5.58984
    5550.00   4.744293     0.1224E+01  -2.24731   5.61827
    5570.00   4.745855     0.1221E+01  -2.24835   5.62088
    5590.00   4.747412     0.1201E+01  -2.25574   5.63934
    5610.00   4.748963     0.1191E+01  -2.25911   5.64778
    5630.00   4.750508     0.1170E+01  -2.26697   5.66743
    5650.00   4.752048     0.1164E+01  -2.26927   5.67318
    5670.00   4.753583     0.1149E+01  -2.27464   5.68659
    5690.00   4.755112     0.1129E+01  -2.28232   5.70581
    5710.00   4.756636     0.1124E+01  -2.28428   5.71071
    5730.00   4.758155     0.1110E+01  -2.28978   5.72445
    5750.00   4.759668     0.1097E+01  -2.29497   5.73743
    5770.00   4.761176     0.1082E+01  -2.30076   5.75189
    5790.00   4.762679     0.1074E+01  -2.30398   5.75994
    5810.00   4.764176     0.1058E+01  -2.31068   5.77670
    5830.00   4.765669     0.1047E+01  -2.31536   5.78841
    5850.00   4.767156     0.1035E+01  -2.32021   5.80052
    5870.00   4.768638     0.1019E+01  -2.32691   5.81726
    5890.00   4.770115     0.1008E+01  -2.33151   5.82878
    5910.00   4.771587     0.9974E+00  -2.33628   5.84071
    5930.00   4.773055     0.9870E+00  -2.34081   5.85202
    5950.00   4.774517     0.9733E+00  -2.34690   5.86724
    5970.00   4.775974     0.9649E+00  -2.35065   5.87663
    5990.00   4.777427     0.9536E+00  -2.35578   5.88944
    6010.00   4.778874     0.9425E+00  -2.36086   5.90216
    6030.00   4.780317     0.9314E+00  -2.36601   5.91503
    6050.00   4.781755     0.9180E+00  -2.37227   5.93068
    6070.00   4.783189     0.9079E+00  -2.37712   5.94280
    6090.00   4.784617     0.8972E+00  -2.38225   5.95563
    6110.00   4.786041     0.8856E+00  -2.38790   5.96974
    6130.00   4.787460     0.8771E+00  -2.39211   5.98027
    6150.00   4.788875     0.8677E+00  -2.39676   5.99191
    6170.00   4.790285     0.8591E+00  -2.40108   6.00271
    6190.00   4.791691     0.8489E+00  -2.40630   6.01575
    6210.00   4.793092     0.8399E+00  -2.41089   6.02722
    6230.00   4.794488     0.8287E+00  -2.41676   6.04189
    6250.00   4.795880     0.8178E+00  -2.42250   6.05626
    6270.00   4.797267     0.8085E+00  -2.42744   6.06859
    6290.00   4.798651     0.8000E+00  -2.43207   6.08017
    6310.00   4.800029     0.7904E+00  -2.43730   6.09326
    6330.00   4.801404     0.7833E+00  -2.44119   6.10297
    6350.00   4.802773     0.7733E+00  -2.44680   6.11700
    6370.00   4.804139     0.7664E+00  -2.45070   6.12674
    6390.00   4.805501     0.7557E+00  -2.45676   6.14190
    6420.00   4.807535     0.7437E+00  -2.46376   6.15940
    6460.00   4.810232     0.7264E+00  -2.47399   6.18497
    6500.00   4.812913     0.7103E+00  -2.48367   6.20917
    6540.00   4.815578     0.6944E+00  -2.49353   6.23382
    6580.00   4.818226     0.6796E+00  -2.50289   6.25722
    6620.00   4.820858     0.6641E+00  -2.51290   6.28226
    6660.00   4.823474     0.6496E+00  -2.52250   6.30625
    6700.00   4.826075     0.6355E+00  -2.53201   6.33004
    6740.00   4.828660     0.6212E+00  -2.54190   6.35474
    6780.00   4.831230     0.6078E+00  -2.55139   6.37847
    6820.00   4.833784     0.5945E+00  -2.56100   6.40249
    6860.00   4.836324     0.5819E+00  -2.57026   6.42566
    6900.00   4.838849     0.5692E+00  -2.57990   6.44975
    6940.00   4.841359     0.5570E+00  -2.58928   6.47321
    6980.00   4.843855     0.5452E+00  -2.59861   6.49651
    7020.00   4.846337     0.5333E+00  -2.60814   6.52036
    7060.00   4.848804     0.5223E+00  -2.61723   6.54307
    7100.00   4.851258     0.5112E+00  -2.62654   6.56635
    7140.00   4.853698     0.5006E+00  -2.63568   6.58920
    7180.00   4.856124     0.4900E+00  -2.64492   6.61231
    7220.00   4.858537     0.4799E+00  -2.65401   6.63503
    7260.00   4.860937     0.4699E+00  -2.66317   6.65793
    7300.00   4.863323     0.4602E+00  -2.67216   6.68040
    7340.00   4.865696     0.4507E+00  -2.68127   6.70319
    7380.00   4.868056     0.4416E+00  -2.69014   6.72534
    7420.00   4.870404     0.4323E+00  -2.69933   6.74832
    7460.00   4.872739     0.4234E+00  -2.70837   6.77092
    7500.00   4.875061     0.4150E+00  -2.71706   6.79266
    7540.00   4.877371     0.4067E+00  -2.72589   6.81472
    7580.00   4.879669     0.3988E+00  -2.73435   6.83586
    7620.00   4.881955     0.3909E+00  -2.74306   6.85766
    7660.00   4.884229     0.3832E+00  -2.75173   6.87932
    7700.00   4.886491     0.3756E+00  -2.76044   6.90110
    7740.00   4.888741     0.3683E+00  -2.76896   6.92239
    7780.00   4.890980     0.3611E+00  -2.77748   6.94370
    7820.00   4.893207     0.3541E+00  -2.78601   6.96503
    7860.00   4.895422     0.3473E+00  -2.79446   6.98615
    7900.00   4.897627     0.3406E+00  -2.80289   7.00724
    7940.00   4.899820     0.3341E+00  -2.81129   7.02824
    7980.00   4.902003     0.3277E+00  -2.81961   7.04902
    8020.00   4.904174     0.3214E+00  -2.82807   7.07017
    8060.00   4.906335     0.3154E+00  -2.83634   7.09085
    8100.00   4.908485     0.3095E+00  -2.84446   7.11114
    8140.00   4.910625     0.3037E+00  -2.85275   7.13188
    8180.00   4.912753     0.2981E+00  -2.86080   7.15199
    8220.00   4.914872     0.2926E+00  -2.86889   7.17222
    8260.00   4.916980     0.2872E+00  -2.87700   7.19251
    8300.00   4.919078     0.2819E+00  -2.88502   7.21256
    8340.00   4.921166     0.2767E+00  -2.89316   7.23291
    8380.00   4.923244     0.2716E+00  -2.90114   7.25286
    8420.00   4.925312     0.2668E+00  -2.90894   7.27234
    8460.00   4.927370     0.2620E+00  -2.91688   7.29221
    8500.00   4.929419     0.2573E+00  -2.92474   7.31184
    8540.00   4.931458     0.2527E+00  -2.93254   7.33134
    8580.00   4.933487     0.2482E+00  -2.94031   7.35078
    8620.00   4.935507     0.2438E+00  -2.94805   7.37013
    8660.00   4.937518     0.2396E+00  -2.95574   7.38935
    8700.00   4.939519     0.2353E+00  -2.96343   7.40857
    8740.00   4.941511     0.2312E+00  -2.97109   7.42772
    8780.00   4.943495     0.2272E+00  -2.97873   7.44683
    8820.00   4.945469     0.2232E+00  -2.98640   7.46600
    8860.00   4.947433     0.2194E+00  -2.99393   7.48483
    8900.00   4.949390     0.2156E+00  -3.00150   7.50375
    8940.00   4.951338     0.2120E+00  -3.00890   7.52224
    8980.00   4.953277     0.2083E+00  -3.01651   7.54128
    9020.00   4.955207     0.2048E+00  -3.02378   7.55945
    9060.00   4.957129     0.2014E+00  -3.03113   7.57782
    9100.00   4.959042     0.1979E+00  -3.03876   7.59690
    9140.00   4.960946     0.1946E+00  -3.04593   7.61482
    9180.00   4.962843     0.1914E+00  -3.05320   7.63300
    9220.00   4.964731     0.1883E+00  -3.06038   7.65095
    9260.00   4.966611     0.1851E+00  -3.06764   7.66910
    9300.00   4.968483     0.1821E+00  -3.07484   7.68709
    9340.00   4.970347     0.1791E+00  -3.08205   7.70512
    9380.00   4.972203     0.1762E+00  -3.08916   7.72291
    9420.00   4.974051     0.1733E+00  -3.09629   7.74073
    9460.00   4.975891     0.1705E+00  -3.10342   7.75855
    9500.00   4.977724     0.1677E+00  -3.11048   7.77619
    9540.00   4.979548     0.1651E+00  -3.11751   7.79377
    9580.00   4.981365     0.1624E+00  -3.12450   7.81124
    9620.00   4.983175     0.1598E+00  -3.13150   7.82874
    9660.00   4.984977     0.1573E+00  -3.13841   7.84603
    9700.00   4.986772     0.1548E+00  -3.14533   7.86333
    9740.00   4.988559     0.1523E+00  -3.15249   7.88122
    9780.00   4.990339     0.1499E+00  -3.15919   7.89798
    9820.00   4.992111     0.1476E+00  -3.16596   7.91491
    9860.00   4.993877     0.1453E+00  -3.17277   7.93192
    9900.00   4.995635     0.1431E+00  -3.17954   7.94884
    9940.00   4.997386     0.1409E+00  -3.18634   7.96585
    9980.00   4.999130     0.1387E+00  -3.19307   7.98267
   10020.00   5.000868     0.1366E+00  -3.19977   7.99944
   20000.00   5.301030     0.9190E-02  -4.37182  10.92956
   40000.00   5.602060     0.5907E-03  -5.56380  13.90951
   60000.00   5.778151     0.1174E-03  -6.26553  15.66384
   80000.00   5.903090     0.3719E-04  -6.76476  16.91190
  100000.00   6.000000     0.1522E-04  -7.15259  17.88147
  120000.00   6.079181     0.7334E-05  -7.46982  18.67455
  140000.00   6.146128     0.3953E-05  -7.73820  19.34551
  160000.00   6.204120     0.2314E-05  -7.97083  19.92706
