age =   15.0    [Fe/H] =    0.00

wavele(nm) log wave(A)   Hlam       log(Hlam/Hlam(V))  Hlam(mag(V)) 
      89.50   2.951823     0.6099E-13 -15.32370  38.30924
      90.50   2.956649     0.1008E-12 -15.10531  37.76328
      91.50   2.961421     0.1584E-12 -14.90914  37.27285
      92.50   2.966142     0.5765E-11 -13.34816  33.37040
      93.50   2.970812     0.8080E-11 -13.20155  33.00387
      94.50   2.975432     0.1194E-10 -13.03206  32.58014
      95.50   2.980003     0.1830E-10 -12.84641  32.11603
      96.50   2.984527     0.2737E-10 -12.67161  31.67904
      97.50   2.989005     0.3696E-10 -12.54127  31.35316
      98.50   2.993436     0.5283E-10 -12.38606  30.96515
      99.50   2.997823     0.7302E-10 -12.24553  30.61382
     100.50   3.002166     0.1097E-09 -12.06895  30.17237
     101.50   3.006466     0.1513E-09 -11.92924  29.82309
     102.50   3.010724     0.1758E-09 -11.86390  29.65974
     103.50   3.014940     0.2933E-09 -11.64159  29.10398
     104.50   3.019116     0.4108E-09 -11.49532  28.73830
     105.50   3.023252     0.5228E-09 -11.39061  28.47653
     106.50   3.027350     0.7219E-09 -11.25049  28.12622
     107.50   3.031409     0.9831E-09 -11.11634  27.79086
     108.50   3.035430     0.1336E-08 -10.98320  27.45799
     109.50   3.039414     0.1676E-08 -10.88478  27.21196
     110.50   3.043362     0.5077E-08 -10.40333  26.00832
     111.50   3.047275     0.8061E-08 -10.20256  25.50641
     112.50   3.051152     0.1177E-07 -10.03808  25.09520
     113.50   3.054996     0.1752E-07  -9.86530  24.66325
     114.50   3.058805     0.2355E-07  -9.73697  24.34242
     115.50   3.062582     0.2833E-07  -9.65679  24.14196
     116.50   3.066326     0.3841E-07  -9.52449  23.81123
     117.50   3.070038     0.5013E-07  -9.40883  23.52207
     118.50   3.073718     0.5712E-07  -9.35219  23.38046
     119.50   3.077368     0.5332E-07  -9.38210  23.45524
     120.50   3.080987     0.6004E-07  -9.33054  23.32635
     121.50   3.084576     0.1876E-07  -9.83575  24.58938
     122.50   3.088136     0.8394E-07  -9.18500  22.96249
     123.50   3.091667     0.1528E-06  -8.92476  22.31190
     124.50   3.095169     0.2029E-06  -8.80163  22.00407
     125.50   3.098644     0.2436E-06  -8.72221  21.80552
     126.50   3.102091     0.2705E-06  -8.67678  21.69195
     127.50   3.105510     0.3301E-06  -8.59034  21.47585
     128.50   3.108903     0.3717E-06  -8.53879  21.34698
     129.50   3.112270     0.4539E-06  -8.45204  21.13010
     130.50   3.115611     0.4879E-06  -8.42063  21.05157
     131.50   3.118926     0.6100E-06  -8.32363  20.80906
     132.50   3.122216     0.6417E-06  -8.30164  20.75411
     133.50   3.125481     0.7224E-06  -8.25016  20.62540
     134.50   3.128722     0.8630E-06  -8.17296  20.43240
     135.50   3.131939     0.1023E-05  -8.09912  20.24780
     136.50   3.135133     0.1109E-05  -8.06390  20.15976
     137.50   3.138303     0.1220E-05  -8.02272  20.05680
     138.50   3.141450     0.1358E-05  -7.97590  19.93975
     139.50   3.144574     0.1545E-05  -7.92004  19.80011
     140.50   3.147676     0.1905E-05  -7.82905  19.57262
     141.50   3.150756     0.2197E-05  -7.76704  19.41759
     142.50   3.153815     0.2567E-05  -7.69953  19.24883
     143.50   3.156852     0.3093E-05  -7.61859  19.04647
     144.20   3.158965     0.3978E-05  -7.50934  18.77336
     144.70   3.160469     0.3627E-05  -7.54944  18.87359
     145.50   3.162863     0.4273E-05  -7.47818  18.69544
     146.50   3.165838     0.5534E-05  -7.36592  18.41479
     147.50   3.168792     0.6380E-05  -7.30414  18.26034
     148.50   3.171726     0.6932E-05  -7.26808  18.17019
     149.50   3.174641     0.9077E-05  -7.15100  17.87750
     150.50   3.177536     0.1117E-04  -7.06089  17.65222
     151.20   3.179552     0.8652E-05  -7.17182  17.92954
     151.70   3.180986     0.1101E-04  -7.06706  17.66765
     152.50   3.183270     0.2745E-04  -6.67044  16.67610
     153.50   3.186108     0.4690E-04  -6.43776  16.09441
     154.50   3.188928     0.3837E-04  -6.52492  16.31229
     155.50   3.191730     0.6551E-04  -6.29263  15.73158
     156.50   3.194514     0.6193E-04  -6.31707  15.79268
     157.50   3.197281     0.1235E-03  -6.01721  15.04302
     158.50   3.200029     0.1510E-03  -5.93008  14.82520
     159.50   3.202761     0.1780E-03  -5.85855  14.64637
     160.50   3.205475     0.1906E-03  -5.82875  14.57188
     161.50   3.208173     0.2095E-03  -5.78780  14.46949
     162.50   3.210853     0.2373E-03  -5.73371  14.33427
     163.50   3.213518     0.2836E-03  -5.65626  14.14066
     164.50   3.216166     0.4084E-03  -5.49789  13.74473
     165.50   3.218798     0.2689E-03  -5.67942  14.19856
     166.50   3.221414     0.4802E-03  -5.42757  13.56892
     167.20   3.223236     0.3355E-03  -5.58330  13.95826
     167.70   3.224533     0.1319E-02  -4.98869  12.47173
     168.50   3.226600     0.1488E-02  -4.93627  12.34067
     169.50   3.229170     0.1881E-02  -4.83462  12.08654
     170.50   3.231725     0.2023E-02  -4.80289  12.00721
     171.50   3.234264     0.1902E-02  -4.82977  12.07443
     172.50   3.236789     0.2491E-02  -4.71252  11.78131
     173.50   3.239300     0.2983E-02  -4.63436  11.58590
     174.50   3.241796     0.4161E-02  -4.48972  11.22430
     175.50   3.244277     0.5620E-02  -4.35925  10.89813
     176.50   3.246745     0.5322E-02  -4.38285  10.95712
     177.50   3.249198     0.5734E-02  -4.35052  10.87629
     178.50   3.251638     0.7662E-02  -4.22462  10.56155
     179.50   3.254065     0.9154E-02  -4.14733  10.36833
     180.50   3.256477     0.1001E-01  -4.10838  10.27095
     181.50   3.258877     0.9410E-02  -4.13535  10.33838
     182.50   3.261263     0.1206E-01  -4.02751  10.06878
     183.50   3.263636     0.1259E-01  -4.00883  10.02207
     184.50   3.265996     0.9731E-02  -4.12081  10.30202
     185.50   3.268344     0.1388E-01  -3.96662   9.91654
     186.50   3.270679     0.1642E-01  -3.89356   9.73390
     187.50   3.273001     0.1783E-01  -3.85774   9.64435
     188.50   3.275311     0.1924E-01  -3.82477   9.56192
     189.50   3.277609     0.2532E-01  -3.70553   9.26382
     190.50   3.279895     0.2475E-01  -3.71538   9.28845
     191.50   3.282169     0.2788E-01  -3.66360   9.15901
     192.50   3.284431     0.2843E-01  -3.65515   9.13787
     193.50   3.286681     0.2043E-01  -3.79866   9.49664
     194.50   3.288920     0.3687E-01  -3.54225   8.85562
     195.50   3.291147     0.3908E-01  -3.51704   8.79260
     196.70   3.293804     0.5061E-01  -3.40473   8.51183
     197.60   3.295787     0.4912E-01  -3.41770   8.54426
     198.40   3.297542     0.5725E-01  -3.35117   8.37794
     199.50   3.299943     0.5914E-01  -3.33706   8.34265
     200.50   3.302114     0.5822E-01  -3.34390   8.35974
     201.50   3.304275     0.6453E-01  -3.29919   8.24798
     202.50   3.306425     0.5314E-01  -3.38352   8.45880
     203.50   3.308564     0.7298E-01  -3.24573   8.11433
     204.50   3.310693     0.8435E-01  -3.18287   7.95717
     205.50   3.312812     0.8843E-01  -3.16235   7.90588
     206.50   3.314920     0.8877E-01  -3.16067   7.90169
     207.40   3.316809     0.9629E-01  -3.12538   7.81346
     207.80   3.317646     0.2751E+00  -2.66954   6.67385
     208.50   3.319106     0.3760E+00  -2.53381   6.33453
     209.50   3.321184     0.3468E+00  -2.56890   6.42226
     210.50   3.323252     0.3526E+00  -2.56163   6.40407
     211.50   3.325310     0.4251E+00  -2.48050   6.20124
     212.50   3.327359     0.3765E+00  -2.53316   6.33290
     213.50   3.329398     0.3858E+00  -2.52264   6.30659
     214.50   3.331427     0.5154E+00  -2.39681   5.99202
     215.50   3.333447     0.4767E+00  -2.43071   6.07677
     216.50   3.335458     0.4173E+00  -2.48849   6.22123
     217.50   3.337459     0.4070E+00  -2.49940   6.24849
     218.50   3.339452     0.6025E+00  -2.32897   5.82241
     219.50   3.341434     0.5647E+00  -2.35717   5.89292
     220.50   3.343409     0.5793E+00  -2.34602   5.86504
     221.50   3.345374     0.4244E+00  -2.48117   6.20293
     222.50   3.347330     0.5660E+00  -2.35613   5.89032
     223.50   3.349277     0.8366E+00  -2.18647   5.46616
     224.50   3.351216     0.8029E+00  -2.20431   5.51076
     225.50   3.353147     0.5856E+00  -2.34134   5.85336
     226.50   3.355068     0.4821E+00  -2.42579   6.06447
     227.50   3.356982     0.5347E+00  -2.38085   5.95212
     228.50   3.358886     0.8920E+00  -2.15861   5.39653
     229.50   3.360783     0.6789E+00  -2.27712   5.69280
     230.50   3.362671     0.8778E+00  -2.16554   5.41385
     231.50   3.364551     0.7348E+00  -2.24278   5.60694
     232.50   3.366423     0.6487E+00  -2.29690   5.74225
     233.50   3.368287     0.5945E+00  -2.33483   5.83708
     234.50   3.370143     0.3748E+00  -2.53518   6.33794
     235.50   3.371991     0.7517E+00  -2.23289   5.58223
     236.50   3.373831     0.4460E+00  -2.45962   6.14905
     237.50   3.375664     0.5831E+00  -2.34324   5.85809
     238.50   3.377488     0.3633E+00  -2.54864   6.37161
     239.50   3.379306     0.4604E+00  -2.44586   6.11466
     240.50   3.381115     0.4955E+00  -2.41394   6.03486
     241.50   3.382917     0.5310E+00  -2.38387   5.95968
     242.50   3.384712     0.9985E+00  -2.10959   5.27398
     243.50   3.386499     0.1053E+01  -2.08634   5.21585
     244.50   3.388279     0.1327E+01  -1.98593   4.96484
     245.50   3.390052     0.1465E+01  -1.94303   4.85758
     246.50   3.391817     0.1105E+01  -2.06562   5.16406
     247.50   3.393575     0.9596E+00  -2.12685   5.31713
     248.50   3.395326     0.3970E+00  -2.51022   6.27555
     249.50   3.397071     0.6216E+00  -2.31547   5.78868
     250.50   3.398808     0.1089E+01  -2.07203   5.18007
     251.30   3.400192     0.4518E+00  -2.45400   6.13501
     251.80   3.401056     0.3205E+00  -2.60316   6.50789
     252.50   3.402261     0.3714E+00  -2.53915   6.34787
     253.50   3.403978     0.8525E+00  -2.17826   5.44565
     254.50   3.405688     0.8930E+00  -2.15808   5.39521
     255.50   3.407391     0.2272E+01  -1.75249   4.38124
     256.50   3.409087     0.1497E+01  -1.93379   4.83448
     257.50   3.410777     0.2175E+01  -1.77151   4.42877
     258.50   3.412461     0.1869E+01  -1.83739   4.59348
     259.50   3.414137     0.1678E+01  -1.88411   4.71026
     260.50   3.415808     0.1444E+01  -1.94952   4.87381
     261.50   3.417472     0.1279E+01  -2.00199   5.00498
     262.50   3.419129     0.1854E+01  -1.84076   4.60189
     263.50   3.420781     0.3985E+01  -1.50854   3.77135
     264.50   3.422426     0.5334E+01  -1.38187   3.45467
     265.50   3.424065     0.8768E+01  -1.16608   2.91519
     266.50   3.425697     0.4811E+01  -1.42672   3.56680
     267.50   3.427324     0.5476E+01  -1.37047   3.42619
     268.50   3.428944     0.6930E+01  -1.26825   3.17062
     269.50   3.430559     0.4341E+01  -1.47141   3.67851
     270.50   3.432167     0.5952E+01  -1.33430   3.33575
     271.50   3.433770     0.3896E+01  -1.51834   3.79584
     272.50   3.435366     0.2426E+01  -1.72402   4.31004
     273.50   3.436957     0.3587E+01  -1.55419   3.88548
     274.50   3.438542     0.2067E+01  -1.79360   4.48401
     275.50   3.440122     0.3044E+01  -1.62554   4.06386
     276.50   3.441695     0.4275E+01  -1.47807   3.69517
     277.50   3.443263     0.4490E+01  -1.45676   3.64190
     278.50   3.444825     0.2469E+01  -1.71652   4.29130
     279.50   3.446382     0.1094E+01  -2.06978   5.17444
     280.50   3.447933     0.1353E+01  -1.97760   4.94400
     281.50   3.449478     0.3826E+01  -1.52623   3.81556
     282.50   3.451018     0.5684E+01  -1.35433   3.38583
     283.50   3.452553     0.4910E+01  -1.41792   3.54479
     284.50   3.454082     0.2771E+01  -1.66637   4.16592
     285.50   3.455606     0.1339E+01  -1.98206   4.95514
     286.50   3.457125     0.4344E+01  -1.47106   3.67766
     287.50   3.458638     0.7618E+01  -1.22713   3.06782
     288.50   3.460146     0.7182E+01  -1.25273   3.13183
     289.50   3.461648     0.1024E+02  -1.09860   2.74651
     291.00   3.463893     0.1572E+02  -0.91241   2.28103
     293.00   3.466868     0.1488E+02  -0.93647   2.34118
     295.00   3.469822     0.1471E+02  -0.94130   2.35325
     297.00   3.472756     0.1575E+02  -0.91160   2.27900
     299.00   3.475671     0.1718E+02  -0.87389   2.18472
     301.00   3.478566     0.1724E+02  -0.87234   2.18086
     303.00   3.481443     0.1942E+02  -0.82063   2.05158
     305.00   3.484300     0.1997E+02  -0.80858   2.02146
     307.00   3.487138     0.1961E+02  -0.81652   2.04129
     309.00   3.489959     0.1646E+02  -0.89241   2.23102
     311.00   3.492760     0.2084E+02  -0.79008   1.97520
     313.00   3.495544     0.1808E+02  -0.85173   2.12932
     315.00   3.498311     0.1833E+02  -0.84568   2.11421
     317.00   3.501059     0.2161E+02  -0.77430   1.93575
     319.00   3.503791     0.1809E+02  -0.85155   2.12888
     321.00   3.506505     0.2015E+02  -0.80470   2.01176
     323.00   3.509202     0.1717E+02  -0.87411   2.18528
     325.00   3.511883     0.2603E+02  -0.69346   1.73364
     327.00   3.514548     0.3045E+02  -0.62537   1.56343
     329.00   3.517196     0.2988E+02  -0.63363   1.58408
     331.00   3.519828     0.2678E+02  -0.68117   1.70293
     333.00   3.522444     0.2811E+02  -0.66015   1.65036
     335.00   3.525045     0.2712E+02  -0.67570   1.68924
     337.00   3.527630     0.1850E+02  -0.84189   2.10474
     339.00   3.530200     0.2230E+02  -0.76070   1.90174
     341.00   3.532754     0.2368E+02  -0.73456   1.83640
     343.00   3.535294     0.2610E+02  -0.69233   1.73082
     345.00   3.537819     0.3027E+02  -0.62793   1.56982
     347.00   3.540329     0.3194E+02  -0.60462   1.51155
     349.00   3.542825     0.3603E+02  -0.55229   1.38073
     351.00   3.545307     0.3808E+02  -0.52825   1.32063
     353.00   3.547775     0.3333E+02  -0.58612   1.46531
     355.00   3.550228     0.3702E+02  -0.54052   1.35130
     357.00   3.552668     0.2762E+02  -0.66773   1.66932
     359.00   3.555094     0.2980E+02  -0.63480   1.58699
     361.00   3.557507     0.3799E+02  -0.52934   1.32334
     363.00   3.559907     0.3871E+02  -0.52112   1.30280
     364.00   3.561101     0.3818E+02  -0.52718   1.31794
     365.00   3.562293     0.4000E+02  -0.50694   1.26736
     367.00   3.564666     0.4399E+02  -0.46560   1.16401
     369.00   3.567026     0.3817E+02  -0.52729   1.31822
     371.00   3.569374     0.3950E+02  -0.51231   1.28078
     373.00   3.571709     0.2286E+02  -0.74990   1.87475
     375.00   3.574031     0.2680E+02  -0.68086   1.70214
     377.00   3.576341     0.3804E+02  -0.52871   1.32178
     379.00   3.578639     0.3913E+02  -0.51643   1.29107
     381.00   3.580925     0.3513E+02  -0.56333   1.40833
     383.00   3.583199     0.1755E+02  -0.86458   2.16145
     385.00   3.585461     0.2520E+02  -0.70753   1.76883
     387.00   3.587711     0.2490E+02  -0.71269   1.78172
     389.00   3.589950     0.3514E+02  -0.56319   1.40798
     391.00   3.592177     0.4454E+02  -0.46025   1.15062
     393.00   3.594393     0.1992E+02  -0.80971   2.02428
     395.00   3.596597     0.3787E+02  -0.53066   1.32666
     397.00   3.598790     0.2571E+02  -0.69879   1.74696
     399.00   3.600973     0.6164E+02  -0.31910   0.79774
     401.00   3.603144     0.6908E+02  -0.26960   0.67400
     403.00   3.605305     0.6752E+02  -0.27954   0.69884
     405.00   3.607455     0.6439E+02  -0.30014   0.75036
     407.00   3.609594     0.5977E+02  -0.33249   0.83124
     409.00   3.611723     0.7799E+02  -0.21693   0.54232
     411.00   3.613842     0.7280E+02  -0.24684   0.61709
     413.00   3.615950     0.6946E+02  -0.26719   0.66799
     415.00   3.618048     0.6717E+02  -0.28177   0.70441
     417.00   3.620136     0.6878E+02  -0.27149   0.67873
     419.00   3.622214     0.6708E+02  -0.28235   0.70588
     421.00   3.624282     0.6801E+02  -0.27640   0.69101
     423.00   3.626340     0.6314E+02  -0.30863   0.77158
     425.00   3.628389     0.6930E+02  -0.26825   0.67061
     427.00   3.630428     0.6483E+02  -0.29721   0.74303
     429.00   3.632457     0.6045E+02  -0.32757   0.81894
     431.00   3.634477     0.5231E+02  -0.39040   0.97599
     433.00   3.636488     0.8088E+02  -0.20109   0.50272
     435.00   3.638489     0.8159E+02  -0.19731   0.49328
     437.00   3.640481     0.8839E+02  -0.16255   0.40638
     439.00   3.642465     0.7664E+02  -0.22452   0.56129
     441.00   3.644439     0.8199E+02  -0.19519   0.48798
     443.00   3.646404     0.8992E+02  -0.15510   0.38775
     445.00   3.648360     0.9116E+02  -0.14914   0.37286
     447.00   3.650307     0.9886E+02  -0.11393   0.28483
     449.00   3.652246     0.1023E+03  -0.09917   0.24792
     451.00   3.654176     0.1185E+03  -0.03507   0.08767
     453.00   3.656098     0.1018E+03  -0.10117   0.25292
     455.00   3.658011     0.1080E+03  -0.07569   0.18922
     457.00   3.659916     0.1180E+03  -0.03696   0.09240
     459.00   3.661813     0.1104E+03  -0.06594   0.16486
     461.00   3.663701     0.1144E+03  -0.05062   0.12655
     463.00   3.665581     0.1111E+03  -0.06306   0.15765
     465.00   3.667453     0.1128E+03  -0.05678   0.14194
     467.00   3.669317     0.1188E+03  -0.03431   0.08578
     469.00   3.671173     0.1158E+03  -0.04540   0.11351
     471.00   3.673021     0.1133E+03  -0.05467   0.13668
     473.00   3.674861     0.1171E+03  -0.04045   0.10113
     475.00   3.676694     0.1203E+03  -0.02856   0.07140
     477.00   3.678518     0.1171E+03  -0.04035   0.10088
     479.00   3.680336     0.1185E+03  -0.03512   0.08780
     481.00   3.682145     0.1194E+03  -0.03211   0.08028
     483.00   3.683947     0.1240E+03  -0.01554   0.03884
     485.00   3.685742     0.1186E+03  -0.03496   0.08740
     487.00   3.687529     0.1092E+03  -0.07063   0.17657
     489.00   3.689309     0.1206E+03  -0.02775   0.06938
     491.00   3.691082     0.1214E+03  -0.02471   0.06177
     493.00   3.692847     0.1190E+03  -0.03353   0.08383
     495.00   3.694605     0.1239E+03  -0.01590   0.03976
     497.00   3.696356     0.1185E+03  -0.03509   0.08774
     499.00   3.698101     0.1099E+03  -0.06790   0.16976
     501.00   3.699838     0.1029E+03  -0.09647   0.24118
     503.00   3.701568     0.1107E+03  -0.06489   0.16222
     505.00   3.703291     0.1105E+03  -0.06554   0.16385
     507.00   3.705008     0.1157E+03  -0.04564   0.11410
     509.00   3.706718     0.1090E+03  -0.07158   0.17894
     511.00   3.708421     0.1121E+03  -0.05942   0.14855
     513.00   3.710117     0.1085E+03  -0.07369   0.18422
     515.00   3.711807     0.1042E+03  -0.09089   0.22721
     517.00   3.713490     0.9191E+02  -0.14560   0.36400
     519.00   3.715167     0.9672E+02  -0.12343   0.30857
     521.00   3.716838     0.1072E+03  -0.07880   0.19700
     523.00   3.718502     0.1196E+03  -0.03138   0.07846
     525.00   3.720159     0.1260E+03  -0.00871   0.02177
     527.00   3.721811     0.1088E+03  -0.07223   0.18057
     529.00   3.723456     0.1291E+03   0.00184  -0.00459
     531.00   3.725095     0.1384E+03   0.03225  -0.08063
     533.00   3.726727     0.1198E+03  -0.03045   0.07612
     535.00   3.728354     0.1336E+03   0.01683  -0.04208
     537.00   3.729974     0.1322E+03   0.01220  -0.03050
     539.00   3.731589     0.1292E+03   0.00236  -0.00589
     541.00   3.733197     0.1273E+03  -0.00423   0.01058
     543.00   3.734800     0.1294E+03   0.00309  -0.00773
     545.00   3.736397     0.1320E+03   0.01162  -0.02904
     547.00   3.737987     0.1289E+03   0.00127  -0.00318
     549.00   3.739572     0.1311E+03   0.00878  -0.02196
     551.00   3.741152     0.1285E+03   0.00000   0.00000
     553.00   3.742725     0.1343E+03   0.01917  -0.04794
     555.00   3.744293     0.1370E+03   0.02785  -0.06962
     557.00   3.745855     0.1340E+03   0.01808  -0.04520
     559.00   3.747412     0.1300E+03   0.00506  -0.01264
     561.00   3.748963     0.1349E+03   0.02092  -0.05229
     563.00   3.750508     0.1342E+03   0.01867  -0.04666
     565.00   3.752048     0.1370E+03   0.02783  -0.06956
     567.00   3.753583     0.1337E+03   0.01707  -0.04267
     569.00   3.755112     0.1385E+03   0.03239  -0.08098
     571.00   3.756636     0.1338E+03   0.01755  -0.04388
     573.00   3.758155     0.1461E+03   0.05584  -0.13959
     575.00   3.759668     0.1411E+03   0.04046  -0.10114
     577.00   3.761176     0.1429E+03   0.04594  -0.11486
     579.00   3.762679     0.1371E+03   0.02797  -0.06993
     581.00   3.764176     0.1433E+03   0.04721  -0.11801
     583.00   3.765669     0.1472E+03   0.05890  -0.14725
     585.00   3.767156     0.1413E+03   0.04120  -0.10299
     587.00   3.768638     0.1409E+03   0.03997  -0.09993
     589.00   3.770115     0.1266E+03  -0.00643   0.01607
     591.00   3.771587     0.1386E+03   0.03296  -0.08240
     593.00   3.773055     0.1395E+03   0.03555  -0.08889
     595.00   3.774517     0.1399E+03   0.03697  -0.09242
     597.00   3.775974     0.1431E+03   0.04666  -0.11664
     599.00   3.777427     0.1411E+03   0.04064  -0.10159
     601.00   3.778874     0.1395E+03   0.03556  -0.08891
     603.00   3.780317     0.1439E+03   0.04896  -0.12240
     605.00   3.781755     0.1470E+03   0.05836  -0.14590
     607.00   3.783189     0.1466E+03   0.05717  -0.14291
     609.00   3.784617     0.1416E+03   0.04210  -0.10524
     611.00   3.786041     0.1427E+03   0.04550  -0.11374
     613.00   3.787461     0.1348E+03   0.02085  -0.05213
     615.00   3.788875     0.1385E+03   0.03236  -0.08091
     617.00   3.790285     0.1285E+03  -0.00008   0.00021
     619.00   3.791691     0.1366E+03   0.02652  -0.06630
     621.00   3.793092     0.1350E+03   0.02130  -0.05325
     623.00   3.794488     0.1305E+03   0.00676  -0.01689
     625.00   3.795880     0.1269E+03  -0.00542   0.01356
     627.00   3.797267     0.1337E+03   0.01702  -0.04254
     629.00   3.798651     0.1373E+03   0.02861  -0.07153
     631.00   3.800029     0.1347E+03   0.02033  -0.05082
     633.00   3.801404     0.1375E+03   0.02919  -0.07298
     635.00   3.802774     0.1387E+03   0.03309  -0.08273
     637.00   3.804139     0.1386E+03   0.03282  -0.08204
     639.00   3.805501     0.1416E+03   0.04216  -0.10539
     641.00   3.806858     0.1389E+03   0.03384  -0.08459
     643.00   3.808211     0.1406E+03   0.03904  -0.09761
     645.00   3.809560     0.1401E+03   0.03753  -0.09383
     647.00   3.810904     0.1400E+03   0.03715  -0.09288
     649.00   3.812245     0.1376E+03   0.02951  -0.07378
     651.00   3.813581     0.1431E+03   0.04665  -0.11662
     653.00   3.814913     0.1440E+03   0.04934  -0.12334
     655.00   3.816241     0.1408E+03   0.03954  -0.09885
     657.00   3.817565     0.1345E+03   0.01970  -0.04925
     659.00   3.818885     0.1403E+03   0.03797  -0.09493
     661.00   3.820201     0.1414E+03   0.04164  -0.10411
     663.00   3.821513     0.1392E+03   0.03468  -0.08670
     665.00   3.822822     0.1377E+03   0.02999  -0.07499
     667.00   3.824126     0.1337E+03   0.01706  -0.04265
     669.00   3.825426     0.1347E+03   0.02035  -0.05086
     671.00   3.826723     0.1283E+03  -0.00060   0.00150
     673.00   3.828015     0.1314E+03   0.00967  -0.02417
     675.00   3.829304     0.1290E+03   0.00151  -0.00378
     677.00   3.830589     0.1298E+03   0.00441  -0.01102
     679.00   3.831870     0.1285E+03   0.00001  -0.00003
     681.00   3.833147     0.1296E+03   0.00367  -0.00919
     683.00   3.834421     0.1319E+03   0.01141  -0.02852
     685.00   3.835690     0.1289E+03   0.00140  -0.00351
     687.00   3.836957     0.1316E+03   0.01037  -0.02592
     689.00   3.838219     0.1348E+03   0.02062  -0.05156
     691.00   3.839478     0.1362E+03   0.02507  -0.06267
     693.00   3.840733     0.1359E+03   0.02411  -0.06029
     695.00   3.841985     0.1367E+03   0.02694  -0.06736
     697.00   3.843233     0.1401E+03   0.03753  -0.09382
     699.00   3.844477     0.1410E+03   0.04023  -0.10058
     701.00   3.845718     0.1407E+03   0.03918  -0.09796
     703.00   3.846955     0.1421E+03   0.04374  -0.10935
     705.00   3.848189     0.1390E+03   0.03415  -0.08537
     707.00   3.849419     0.1312E+03   0.00891  -0.02227
     709.00   3.850646     0.1240E+03  -0.01560   0.03901
     711.00   3.851870     0.1196E+03  -0.03121   0.07804
     713.00   3.853090     0.1162E+03  -0.04391   0.10978
     715.00   3.854306     0.1158E+03  -0.04528   0.11321
     717.00   3.855519     0.1180E+03  -0.03725   0.09312
     719.00   3.856729     0.1158E+03  -0.04530   0.11325
     721.00   3.857935     0.1196E+03  -0.03115   0.07786
     723.00   3.859138     0.1239E+03  -0.01602   0.04006
     725.00   3.860338     0.1260E+03  -0.00867   0.02168
     727.00   3.861534     0.1281E+03  -0.00132   0.00331
     729.00   3.862728     0.1288E+03   0.00107  -0.00266
     731.00   3.863917     0.1356E+03   0.02316  -0.05789
     733.00   3.865104     0.1360E+03   0.02450  -0.06126
     735.00   3.866287     0.1408E+03   0.03967  -0.09918
     737.00   3.867467     0.1464E+03   0.05651  -0.14127
     739.00   3.868644     0.1437E+03   0.04840  -0.12100
     741.00   3.869818     0.1465E+03   0.05693  -0.14233
     743.00   3.870989     0.1510E+03   0.07011  -0.17526
     745.00   3.872156     0.1503E+03   0.06810  -0.17024
     747.00   3.873321     0.1559E+03   0.08396  -0.20991
     749.00   3.874482     0.1554E+03   0.08257  -0.20643
     751.00   3.875640     0.1565E+03   0.08569  -0.21423
     753.00   3.876795     0.1599E+03   0.09496  -0.23739
     755.00   3.877947     0.1614E+03   0.09903  -0.24756
     757.00   3.879096     0.1614E+03   0.09899  -0.24748
     759.00   3.880242     0.1547E+03   0.08053  -0.20132
     761.00   3.881385     0.1483E+03   0.06213  -0.15533
     763.00   3.882524     0.1414E+03   0.04161  -0.10403
     765.00   3.883662     0.1341E+03   0.01833  -0.04582
     767.00   3.884795     0.1256E+03  -0.01011   0.02528
     769.00   3.885926     0.1281E+03  -0.00126   0.00315
     771.00   3.887054     0.1258E+03  -0.00942   0.02354
     773.00   3.888180     0.1261E+03  -0.00815   0.02038
     775.00   3.889302     0.1252E+03  -0.01145   0.02862
     777.00   3.890421     0.1274E+03  -0.00374   0.00935
     779.00   3.891537     0.1280E+03  -0.00178   0.00446
     781.00   3.892651     0.1287E+03   0.00052  -0.00129
     783.00   3.893762     0.1288E+03   0.00096  -0.00240
     785.00   3.894870     0.1273E+03  -0.00407   0.01018
     787.00   3.895975     0.1302E+03   0.00561  -0.01403
     789.00   3.897077     0.1302E+03   0.00552  -0.01381
     791.00   3.898176     0.1267E+03  -0.00632   0.01580
     793.00   3.899273     0.1283E+03  -0.00081   0.00201
     795.00   3.900367     0.1285E+03   0.00011  -0.00027
     797.00   3.901458     0.1324E+03   0.01308  -0.03271
     799.00   3.902547     0.1329E+03   0.01441  -0.03602
     801.00   3.903632     0.1365E+03   0.02618  -0.06545
     803.00   3.904716     0.1380E+03   0.03083  -0.07707
     805.00   3.905796     0.1378E+03   0.03042  -0.07604
     807.00   3.906873     0.1428E+03   0.04570  -0.11424
     809.00   3.907948     0.1424E+03   0.04459  -0.11147
     811.00   3.909021     0.1444E+03   0.05053  -0.12631
     813.00   3.910090     0.1498E+03   0.06650  -0.16626
     815.00   3.911158     0.1526E+03   0.07469  -0.18672
     817.00   3.912222     0.1538E+03   0.07799  -0.19497
     819.00   3.913284     0.1509E+03   0.06988  -0.17469
     821.00   3.914343     0.1444E+03   0.05053  -0.12633
     823.00   3.915400     0.1448E+03   0.05171  -0.12928
     825.00   3.916454     0.1442E+03   0.05001  -0.12503
     827.00   3.917506     0.1448E+03   0.05180  -0.12951
     829.00   3.918555     0.1429E+03   0.04607  -0.11518
     831.00   3.919601     0.1384E+03   0.03228  -0.08069
     833.00   3.920645     0.1372E+03   0.02833  -0.07083
     835.00   3.921686     0.1366E+03   0.02663  -0.06658
     837.00   3.922725     0.1376E+03   0.02961  -0.07402
     839.00   3.923762     0.1338E+03   0.01750  -0.04374
     841.00   3.924796     0.1378E+03   0.03038  -0.07595
     843.00   3.925828     0.1332E+03   0.01547  -0.03867
     845.00   3.926857     0.1261E+03  -0.00833   0.02084
     847.00   3.927883     0.1254E+03  -0.01057   0.02643
     849.00   3.928908     0.1281E+03  -0.00128   0.00319
     851.00   3.929929     0.1226E+03  -0.02032   0.05079
     853.00   3.930949     0.1278E+03  -0.00246   0.00615
     855.00   3.931966     0.1247E+03  -0.01308   0.03269
     857.00   3.932981     0.1323E+03   0.01254  -0.03136
     859.00   3.933993     0.1312E+03   0.00903  -0.02257
     861.00   3.935003     0.1339E+03   0.01770  -0.04426
     863.00   3.936011     0.1370E+03   0.02766  -0.06914
     865.00   3.937016     0.1383E+03   0.03188  -0.07969
     867.00   3.938019     0.1308E+03   0.00770  -0.01925
     869.00   3.939020     0.1369E+03   0.02737  -0.06843
     871.00   3.940018     0.1413E+03   0.04132  -0.10329
     873.00   3.941014     0.1427E+03   0.04541  -0.11352
     875.00   3.942008     0.1421E+03   0.04363  -0.10907
     877.00   3.943000     0.1437E+03   0.04853  -0.12133
     879.00   3.943989     0.1473E+03   0.05910  -0.14775
     881.00   3.944976     0.1451E+03   0.05285  -0.13212
     883.00   3.945961     0.1470E+03   0.05822  -0.14555
     885.00   3.946943     0.1437E+03   0.04861  -0.12153
     887.00   3.947924     0.1371E+03   0.02804  -0.07010
     889.00   3.948902     0.1373E+03   0.02883  -0.07206
     891.00   3.949878     0.1391E+03   0.03448  -0.08621
     893.00   3.950851     0.1375E+03   0.02924  -0.07311
     895.00   3.951823     0.1383E+03   0.03179  -0.07948
     897.00   3.952792     0.1388E+03   0.03338  -0.08344
     899.00   3.953760     0.1392E+03   0.03461  -0.08651
     901.00   3.954725     0.1366E+03   0.02641  -0.06603
     903.00   3.955688     0.1422E+03   0.04390  -0.10975
     905.00   3.956649     0.1468E+03   0.05789  -0.14473
     907.00   3.957607     0.1477E+03   0.06042  -0.15106
     909.00   3.958564     0.1461E+03   0.05572  -0.13931
     911.00   3.959518     0.1479E+03   0.06109  -0.15274
     913.00   3.960471     0.1499E+03   0.06687  -0.16718
     915.00   3.961421     0.1491E+03   0.06452  -0.16131
     917.00   3.962369     0.1489E+03   0.06408  -0.16019
     919.00   3.963315     0.1501E+03   0.06733  -0.16834
     921.00   3.964260     0.1443E+03   0.05024  -0.12561
     923.00   3.965202     0.1427E+03   0.04532  -0.11329
     925.00   3.966142     0.1407E+03   0.03930  -0.09826
     927.00   3.967080     0.1427E+03   0.04553  -0.11383
     929.00   3.968016     0.1391E+03   0.03433  -0.08584
     931.00   3.968950     0.1397E+03   0.03628  -0.09070
     933.00   3.969882     0.1407E+03   0.03945  -0.09862
     935.00   3.970812     0.1406E+03   0.03900  -0.09750
     937.00   3.971740     0.1376E+03   0.02961  -0.07403
     939.00   3.972666     0.1409E+03   0.03980  -0.09950
     941.00   3.973590     0.1392E+03   0.03481  -0.08702
     943.00   3.974512     0.1418E+03   0.04261  -0.10652
     945.00   3.975432     0.1404E+03   0.03834  -0.09585
     947.00   3.976350     0.1435E+03   0.04796  -0.11990
     949.00   3.977266     0.1440E+03   0.04953  -0.12384
     951.00   3.978180     0.1405E+03   0.03872  -0.09681
     953.00   3.979093     0.1424E+03   0.04461  -0.11152
     955.00   3.980003     0.1410E+03   0.04034  -0.10085
     957.00   3.980912     0.1423E+03   0.04417  -0.11043
     959.00   3.981819     0.1441E+03   0.04972  -0.12429
     961.00   3.982723     0.1427E+03   0.04540  -0.11351
     963.00   3.983626     0.1439E+03   0.04915  -0.12287
     965.00   3.984527     0.1420E+03   0.04331  -0.10827
     967.00   3.985426     0.1424E+03   0.04455  -0.11138
     969.00   3.986324     0.1438E+03   0.04887  -0.12218
     971.00   3.987219     0.1418E+03   0.04263  -0.10659
     973.00   3.988113     0.1404E+03   0.03843  -0.09607
     975.00   3.989005     0.1402E+03   0.03776  -0.09439
     977.00   3.989895     0.1407E+03   0.03928  -0.09820
     979.00   3.990783     0.1393E+03   0.03506  -0.08764
     981.00   3.991669     0.1421E+03   0.04354  -0.10885
     983.00   3.992553     0.1410E+03   0.04012  -0.10029
     985.00   3.993436     0.1416E+03   0.04220  -0.10551
     987.00   3.994317     0.1407E+03   0.03936  -0.09840
     989.00   3.995196     0.1405E+03   0.03864  -0.09661
     991.00   3.996074     0.1403E+03   0.03807  -0.09517
     993.00   3.996949     0.1409E+03   0.03998  -0.09995
     995.00   3.997823     0.1413E+03   0.04125  -0.10313
     997.00   3.998695     0.1414E+03   0.04146  -0.10365
     999.00   3.999566     0.1410E+03   0.04035  -0.10088
    1003.00   4.001301     0.1411E+03   0.04054  -0.10134
    1008.00   4.003461     0.1403E+03   0.03820  -0.09550
    1013.00   4.005610     0.1417E+03   0.04255  -0.10637
    1018.00   4.007748     0.1403E+03   0.03819  -0.09546
    1023.00   4.009875     0.1407E+03   0.03933  -0.09831
    1028.00   4.011993     0.1408E+03   0.03977  -0.09943
    1033.00   4.014100     0.1396E+03   0.03584  -0.08961
    1038.00   4.016197     0.1389E+03   0.03380  -0.08449
    1043.00   4.018284     0.1395E+03   0.03554  -0.08884
    1048.00   4.020361     0.1386E+03   0.03294  -0.08236
    1053.00   4.022429     0.1376E+03   0.02968  -0.07420
    1058.00   4.024486     0.1356E+03   0.02328  -0.05821
    1063.00   4.026533     0.1349E+03   0.02112  -0.05280
    1068.00   4.028571     0.1341E+03   0.01847  -0.04617
    1073.00   4.030600     0.1346E+03   0.02001  -0.05003
    1078.00   4.032619     0.1337E+03   0.01708  -0.04271
    1083.00   4.034628     0.1320E+03   0.01165  -0.02912
    1088.00   4.036629     0.1313E+03   0.00920  -0.02300
    1093.00   4.038620     0.1308E+03   0.00776  -0.01939
    1098.00   4.040603     0.1290E+03   0.00154  -0.00385
    1103.00   4.042576     0.1284E+03  -0.00033   0.00084
    1108.00   4.044539     0.1263E+03  -0.00754   0.01886
    1113.00   4.046495     0.1263E+03  -0.00743   0.01858
    1118.00   4.048442     0.1257E+03  -0.00952   0.02381
    1123.00   4.050380     0.1259E+03  -0.00904   0.02261
    1128.00   4.052309     0.1253E+03  -0.01098   0.02745
    1133.00   4.054230     0.1253E+03  -0.01107   0.02767
    1138.00   4.056142     0.1248E+03  -0.01277   0.03192
    1143.00   4.058046     0.1241E+03  -0.01532   0.03830
    1148.00   4.059942     0.1249E+03  -0.01232   0.03080
    1153.00   4.061830     0.1249E+03  -0.01252   0.03131
    1158.00   4.063708     0.1239E+03  -0.01582   0.03955
    1163.00   4.065579     0.1228E+03  -0.01975   0.04938
    1168.00   4.067443     0.1228E+03  -0.01980   0.04949
    1173.00   4.069298     0.1230E+03  -0.01895   0.04736
    1178.00   4.071145     0.1213E+03  -0.02495   0.06239
    1183.00   4.072985     0.1204E+03  -0.02839   0.07097
    1188.00   4.074817     0.1192E+03  -0.03255   0.08137
    1193.00   4.076640     0.1205E+03  -0.02783   0.06958
    1198.00   4.078457     0.1179E+03  -0.03731   0.09327
    1203.00   4.080266     0.1194E+03  -0.03178   0.07944
    1208.00   4.082067     0.1187E+03  -0.03447   0.08618
    1213.00   4.083861     0.1188E+03  -0.03412   0.08531
    1218.00   4.085648     0.1189E+03  -0.03384   0.08459
    1223.00   4.087426     0.1183E+03  -0.03591   0.08979
    1228.00   4.089198     0.1177E+03  -0.03820   0.09551
    1233.00   4.090963     0.1172E+03  -0.04020   0.10050
    1238.00   4.092721     0.1168E+03  -0.04133   0.10333
    1243.00   4.094471     0.1155E+03  -0.04655   0.11639
    1248.00   4.096214     0.1155E+03  -0.04630   0.11574
    1253.00   4.097951     0.1148E+03  -0.04906   0.12264
    1258.00   4.099681     0.1143E+03  -0.05092   0.12731
    1263.00   4.101403     0.1140E+03  -0.05212   0.13030
    1268.00   4.103119     0.1133E+03  -0.05466   0.13665
    1273.00   4.104828     0.1132E+03  -0.05506   0.13766
    1278.00   4.106531     0.1133E+03  -0.05485   0.13712
    1283.00   4.108227     0.1108E+03  -0.06428   0.16069
    1288.00   4.109916     0.1118E+03  -0.06050   0.15125
    1293.00   4.111598     0.1109E+03  -0.06383   0.15958
    1298.00   4.113275     0.1116E+03  -0.06132   0.15331
    1303.00   4.114944     0.1106E+03  -0.06518   0.16295
    1308.00   4.116608     0.1106E+03  -0.06507   0.16267
    1313.00   4.118265     0.1089E+03  -0.07174   0.17934
    1318.00   4.119915     0.1085E+03  -0.07340   0.18350
    1323.00   4.121560     0.1084E+03  -0.07381   0.18452
    1328.00   4.123198     0.1070E+03  -0.07950   0.19875
    1333.00   4.124830     0.1071E+03  -0.07933   0.19834
    1338.00   4.126456     0.1062E+03  -0.08283   0.20706
    1343.00   4.128076     0.1062E+03  -0.08290   0.20726
    1348.00   4.129690     0.1054E+03  -0.08609   0.21522
    1353.00   4.131298     0.1048E+03  -0.08840   0.22100
    1358.00   4.132900     0.1035E+03  -0.09384   0.23460
    1363.00   4.134496     0.1034E+03  -0.09459   0.23649
    1368.00   4.136086     0.1040E+03  -0.09197   0.22994
    1373.00   4.137671     0.1045E+03  -0.08980   0.22450
    1378.00   4.139249     0.1045E+03  -0.08971   0.22429
    1383.00   4.140822     0.1045E+03  -0.08974   0.22435
    1388.00   4.142389     0.1036E+03  -0.09355   0.23388
    1393.00   4.143951     0.9514E+02  -0.13059   0.32647
    1398.00   4.145507     0.9583E+02  -0.12746   0.31866
    1403.00   4.147058     0.9528E+02  -0.12995   0.32487
    1408.00   4.148602     0.9592E+02  -0.12704   0.31760
    1413.00   4.150142     0.9533E+02  -0.12973   0.32432
    1418.00   4.151676     0.9596E+02  -0.12685   0.31712
    1423.00   4.153205     0.9543E+02  -0.12925   0.32313
    1428.00   4.154728     0.9476E+02  -0.13235   0.33088
    1433.00   4.156246     0.9635E+02  -0.12511   0.31277
    1438.00   4.157759     0.9688E+02  -0.12272   0.30680
    1443.00   4.159266     0.9561E+02  -0.12843   0.32108
    1448.00   4.160769     0.9703E+02  -0.12204   0.30510
    1453.00   4.162266     0.9652E+02  -0.12436   0.31090
    1457.00   4.163460     0.9699E+02  -0.12223   0.30558
    1462.00   4.164948     0.9251E+02  -0.14276   0.35690
    1468.00   4.166726     0.9319E+02  -0.13959   0.34898
    1473.00   4.168202     0.9287E+02  -0.14110   0.35274
    1478.00   4.169674     0.9369E+02  -0.13729   0.34321
    1483.00   4.171141     0.9428E+02  -0.13455   0.33636
    1488.00   4.172603     0.9398E+02  -0.13592   0.33980
    1493.00   4.174060     0.9589E+02  -0.12719   0.31797
    1498.00   4.175512     0.9571E+02  -0.12802   0.32005
    1503.00   4.176959     0.9500E+02  -0.13123   0.32806
    1508.00   4.178401     0.9550E+02  -0.12894   0.32234
    1513.00   4.179839     0.9700E+02  -0.12220   0.30551
    1518.00   4.181272     0.9745E+02  -0.12017   0.30042
    1523.00   4.182700     0.9758E+02  -0.11959   0.29898
    1528.00   4.184123     0.9825E+02  -0.11663   0.29158
    1533.00   4.185542     0.9816E+02  -0.11703   0.29258
    1538.00   4.186956     0.9592E+02  -0.12706   0.31764
    1543.00   4.188366     0.9700E+02  -0.12219   0.30547
    1548.00   4.189771     0.9742E+02  -0.12032   0.30079
    1553.00   4.191172     0.9717E+02  -0.12143   0.30358
    1558.00   4.192567     0.9412E+02  -0.13529   0.33822
    1563.00   4.193959     0.9523E+02  -0.13020   0.32549
    1568.00   4.195346     0.9543E+02  -0.12928   0.32319
    1573.00   4.196729     0.9719E+02  -0.12134   0.30336
    1578.00   4.198107     0.8858E+02  -0.16163   0.40408
    1583.00   4.199481     0.9187E+02  -0.14577   0.36443
    1588.00   4.200850     0.9265E+02  -0.14210   0.35524
    1593.00   4.202216     0.9523E+02  -0.13018   0.32545
    1598.00   4.203577     0.9754E+02  -0.11977   0.29943
    1605.00   4.205475     0.9230E+02  -0.14375   0.35937
    1615.00   4.208173     0.9542E+02  -0.12934   0.32335
    1625.00   4.210854     0.9124E+02  -0.14879   0.37198
    1635.00   4.213518     0.9470E+02  -0.13262   0.33155
    1645.00   4.216166     0.9098E+02  -0.15003   0.37507
    1655.00   4.218798     0.9274E+02  -0.14169   0.35422
    1665.00   4.221415     0.8988E+02  -0.15531   0.38827
    1675.00   4.224015     0.9067E+02  -0.15148   0.37870
    1685.00   4.226600     0.9086E+02  -0.15056   0.37641
    1695.00   4.229170     0.8875E+02  -0.16081   0.40201
    1705.00   4.231725     0.8761E+02  -0.16641   0.41602
    1715.00   4.234264     0.8571E+02  -0.17593   0.43983
    1725.00   4.236789     0.8416E+02  -0.18385   0.45962
    1735.00   4.239300     0.8171E+02  -0.19670   0.49175
    1745.00   4.241796     0.8054E+02  -0.20295   0.50736
    1755.00   4.244277     0.7948E+02  -0.20869   0.52172
    1765.00   4.246745     0.7752E+02  -0.21954   0.54884
    1775.00   4.249198     0.7575E+02  -0.22960   0.57399
    1785.00   4.251638     0.7461E+02  -0.23619   0.59046
    1795.00   4.254065     0.7284E+02  -0.24662   0.61654
    1805.00   4.256477     0.7127E+02  -0.25607   0.64016
    1815.00   4.258877     0.7002E+02  -0.26376   0.65940
    1825.00   4.261263     0.6899E+02  -0.27015   0.67538
    1835.00   4.263636     0.6798E+02  -0.27655   0.69137
    1845.00   4.265996     0.6672E+02  -0.28473   0.71182
    1855.00   4.268344     0.6603E+02  -0.28925   0.72311
    1865.00   4.270679     0.6458E+02  -0.29887   0.74717
    1875.00   4.273001     0.6329E+02  -0.30762   0.76906
    1885.00   4.275311     0.6259E+02  -0.31242   0.78106
    1895.00   4.277609     0.6062E+02  -0.32631   0.81577
    1905.00   4.279895     0.6043E+02  -0.32770   0.81924
    1915.00   4.282169     0.5917E+02  -0.33686   0.84215
    1925.00   4.284431     0.5812E+02  -0.34465   0.86162
    1935.00   4.286681     0.5661E+02  -0.35608   0.89019
    1945.00   4.288919     0.5528E+02  -0.36642   0.91605
    1955.00   4.291147     0.5469E+02  -0.37104   0.92761
    1965.00   4.293363     0.5360E+02  -0.37982   0.94956
    1975.00   4.295567     0.5228E+02  -0.39058   0.97645
    1985.00   4.297760     0.5149E+02  -0.39720   0.99299
    1995.00   4.299943     0.5081E+02  -0.40298   1.00746
    2005.00   4.302114     0.5036E+02  -0.40687   1.01717
    2015.00   4.304275     0.4966E+02  -0.41295   1.03237
    2025.00   4.306425     0.4861E+02  -0.42222   1.05555
    2035.00   4.308564     0.4797E+02  -0.42795   1.06988
    2045.00   4.310693     0.4766E+02  -0.43084   1.07711
    2055.00   4.312812     0.4693E+02  -0.43751   1.09377
    2065.00   4.314920     0.4621E+02  -0.44425   1.11063
    2075.00   4.317018     0.4568E+02  -0.44920   1.12300
    2085.00   4.319106     0.4505E+02  -0.45525   1.13814
    2095.00   4.321184     0.4431E+02  -0.46242   1.15605
    2105.00   4.323252     0.4397E+02  -0.46579   1.16448
    2115.00   4.325311     0.4327E+02  -0.47273   1.18184
    2125.00   4.327359     0.4266E+02  -0.47895   1.19737
    2135.00   4.329398     0.4222E+02  -0.48349   1.20872
    2145.00   4.331428     0.4160E+02  -0.48989   1.22473
    2155.00   4.333447     0.4099E+02  -0.49628   1.24069
    2165.00   4.335458     0.4026E+02  -0.50404   1.26010
    2175.00   4.337460     0.3971E+02  -0.51009   1.27522
    2185.00   4.339452     0.3921E+02  -0.51552   1.28879
    2195.00   4.341434     0.3871E+02  -0.52114   1.30285
    2205.00   4.343409     0.3787E+02  -0.53067   1.32667
    2215.00   4.345374     0.3763E+02  -0.53339   1.33348
    2225.00   4.347330     0.3683E+02  -0.54273   1.35682
    2235.00   4.349277     0.3634E+02  -0.54853   1.37132
    2245.00   4.351216     0.3582E+02  -0.55488   1.38720
    2255.00   4.353147     0.3535E+02  -0.56063   1.40157
    2265.00   4.355068     0.3466E+02  -0.56912   1.42279
    2275.00   4.356981     0.3434E+02  -0.57315   1.43288
    2285.00   4.358886     0.3368E+02  -0.58162   1.45404
    2295.00   4.360783     0.2683E+02  -0.68039   1.70096
    2305.00   4.362671     0.2989E+02  -0.63349   1.58373
    2315.00   4.364551     0.2982E+02  -0.63441   1.58603
    2325.00   4.366423     0.2496E+02  -0.71173   1.77933
    2335.00   4.368287     0.2741E+02  -0.67110   1.67774
    2345.00   4.370143     0.2500E+02  -0.71103   1.77758
    2355.00   4.371991     0.2319E+02  -0.74362   1.85905
    2365.00   4.373831     0.2523E+02  -0.70711   1.76778
    2375.00   4.375664     0.2343E+02  -0.73909   1.84774
    2385.00   4.377488     0.2182E+02  -0.77005   1.92513
    2395.00   4.379306     0.2338E+02  -0.74020   1.85049
    2405.00   4.381115     0.2230E+02  -0.76063   1.90157
    2415.00   4.382917     0.2053E+02  -0.79662   1.99155
    2425.00   4.384712     0.2178E+02  -0.77090   1.92725
    2435.00   4.386499     0.2062E+02  -0.79457   1.98642
    2445.00   4.388279     0.2072E+02  -0.79249   1.98122
    2455.00   4.390052     0.1989E+02  -0.81022   2.02556
    2465.00   4.391817     0.1975E+02  -0.81348   2.03369
    2475.00   4.393575     0.1917E+02  -0.82640   2.06600
    2485.00   4.395327     0.1657E+02  -0.88959   2.22398
    2495.00   4.397071     0.1570E+02  -0.91299   2.28246
    2505.00   4.398808     0.1594E+02  -0.90635   2.26588
    2515.00   4.400538     0.1526E+02  -0.92534   2.31335
    2525.00   4.402262     0.1562E+02  -0.91515   2.28789
    2535.00   4.403978     0.1567E+02  -0.91378   2.28444
    2545.00   4.405688     0.1554E+02  -0.91753   2.29381
    2555.00   4.407391     0.1556E+02  -0.91685   2.29214
    2565.00   4.409087     0.1573E+02  -0.91225   2.28062
    2575.00   4.410777     0.1590E+02  -0.90761   2.26902
    2585.00   4.412460     0.1560E+02  -0.91593   2.28984
    2595.00   4.414137     0.1566E+02  -0.91412   2.28530
    2605.00   4.415808     0.1567E+02  -0.91390   2.28475
    2615.00   4.417472     0.1545E+02  -0.92000   2.30000
    2625.00   4.419129     0.1525E+02  -0.92573   2.31434
    2635.00   4.420781     0.1525E+02  -0.92579   2.31447
    2645.00   4.422426     0.1512E+02  -0.92927   2.32317
    2655.00   4.424065     0.1496E+02  -0.93410   2.33524
    2665.00   4.425697     0.1475E+02  -0.94024   2.35059
    2675.00   4.427324     0.1486E+02  -0.93684   2.34210
    2685.00   4.428945     0.1472E+02  -0.94111   2.35279
    2695.00   4.430559     0.1448E+02  -0.94813   2.37033
    2705.00   4.432167     0.1446E+02  -0.94875   2.37188
    2715.00   4.433770     0.1434E+02  -0.95237   2.38091
    2725.00   4.435367     0.1426E+02  -0.95492   2.38731
    2735.00   4.436957     0.1405E+02  -0.96131   2.40327
    2745.00   4.438542     0.1401E+02  -0.96246   2.40615
    2755.00   4.440122     0.1393E+02  -0.96512   2.41280
    2765.00   4.441695     0.1377E+02  -0.97016   2.42539
    2775.00   4.443263     0.1360E+02  -0.97529   2.43821
    2785.00   4.444825     0.1355E+02  -0.97710   2.44274
    2795.00   4.446382     0.1348E+02  -0.97914   2.44785
    2805.00   4.447933     0.1335E+02  -0.98339   2.45847
    2815.00   4.449478     0.1320E+02  -0.98847   2.47117
    2825.00   4.451018     0.1311E+02  -0.99150   2.47875
    2835.00   4.452553     0.1303E+02  -0.99410   2.48525
    2845.00   4.454082     0.1289E+02  -0.99879   2.49698
    2855.00   4.455606     0.1277E+02  -1.00278   2.50696
    2865.00   4.457125     0.1266E+02  -1.00651   2.51627
    2875.00   4.458638     0.1255E+02  -1.01034   2.52585
    2885.00   4.460146     0.1244E+02  -1.01401   2.53503
    2895.00   4.461648     0.1234E+02  -1.01780   2.54451
    2905.00   4.463146     0.1222E+02  -1.02197   2.55493
    2915.00   4.464639     0.1212E+02  -1.02547   2.56369
    2925.00   4.466126     0.1195E+02  -1.03156   2.57891
    2935.00   4.467608     0.1190E+02  -1.03324   2.58311
    2945.00   4.469085     0.1178E+02  -1.03791   2.59477
    2955.00   4.470557     0.1168E+02  -1.04161   2.60401
    2965.00   4.472025     0.1159E+02  -1.04482   2.61206
    2975.00   4.473487     0.1149E+02  -1.04869   2.62172
    2985.00   4.474944     0.1137E+02  -1.05319   2.63297
    2995.00   4.476397     0.1126E+02  -1.05738   2.64344
    3005.00   4.477844     0.1117E+02  -1.06083   2.65208
    3015.00   4.479287     0.1111E+02  -1.06320   2.65800
    3025.00   4.480725     0.1101E+02  -1.06701   2.66751
    3035.00   4.482159     0.1092E+02  -1.07078   2.67696
    3045.00   4.483587     0.1087E+02  -1.07271   2.68178
    3055.00   4.485011     0.1078E+02  -1.07625   2.69063
    3065.00   4.486430     0.1070E+02  -1.07956   2.69889
    3075.00   4.487845     0.1064E+02  -1.08208   2.70519
    3085.00   4.489255     0.1054E+02  -1.08626   2.71564
    3095.00   4.490661     0.1047E+02  -1.08883   2.72209
    3105.00   4.492062     0.1041E+02  -1.09136   2.72841
    3115.00   4.493458     0.1029E+02  -1.09660   2.74149
    3125.00   4.494850     0.1024E+02  -1.09870   2.74674
    3135.00   4.496238     0.1016E+02  -1.10207   2.75518
    3145.00   4.497621     0.1008E+02  -1.10569   2.76423
    3155.00   4.499000     0.9982E+01  -1.10976   2.77440
    3165.00   4.500374     0.9892E+01  -1.11367   2.78417
    3175.00   4.501744     0.9827E+01  -1.11654   2.79134
    3185.00   4.503109     0.9746E+01  -1.12014   2.80035
    3195.00   4.504471     0.9675E+01  -1.12332   2.80831
    3210.00   4.506505     0.9545E+01  -1.12916   2.82291
    3230.00   4.509202     0.9377E+01  -1.13689   2.84224
    3250.00   4.511883     0.9216E+01  -1.14442   2.86106
    3270.00   4.514548     0.9046E+01  -1.15250   2.88125
    3290.00   4.517196     0.8869E+01  -1.16109   2.90272
    3310.00   4.519828     0.8716E+01  -1.16864   2.92159
    3330.00   4.522444     0.8546E+01  -1.17718   2.94296
    3350.00   4.525045     0.8398E+01  -1.18478   2.96195
    3370.00   4.527630     0.8233E+01  -1.19339   2.98348
    3390.00   4.530200     0.8066E+01  -1.20232   3.00580
    3410.00   4.532754     0.7901E+01  -1.21128   3.02820
    3430.00   4.535294     0.7762E+01  -1.21900   3.04750
    3450.00   4.537819     0.7612E+01  -1.22746   3.06864
    3470.00   4.540329     0.7458E+01  -1.23632   3.09079
    3490.00   4.542826     0.7314E+01  -1.24483   3.11207
    3510.00   4.545307     0.7174E+01  -1.25321   3.13303
    3530.00   4.547775     0.7023E+01  -1.26242   3.15605
    3550.00   4.550228     0.6892E+01  -1.27059   3.17648
    3570.00   4.552669     0.6755E+01  -1.27932   3.19831
    3590.00   4.555095     0.6626E+01  -1.28773   3.21933
    3610.00   4.557508     0.6505E+01  -1.29571   3.23928
    3630.00   4.559907     0.6376E+01  -1.30440   3.26099
    3650.00   4.562293     0.6243E+01  -1.31356   3.28389
    3670.00   4.564666     0.6119E+01  -1.32227   3.30567
    3690.00   4.567026     0.5987E+01  -1.33175   3.32937
    3710.00   4.569374     0.5866E+01  -1.34059   3.35147
    3730.00   4.571709     0.5768E+01  -1.34794   3.36986
    3750.00   4.574031     0.5639E+01  -1.35777   3.39441
    3770.00   4.576342     0.5549E+01  -1.36477   3.41193
    3790.00   4.578639     0.5439E+01  -1.37344   3.43360
    3810.00   4.580925     0.5339E+01  -1.38150   3.45376
    3830.00   4.583199     0.5243E+01  -1.38935   3.47337
    3850.00   4.585461     0.5145E+01  -1.39753   3.49384
    3870.00   4.587711     0.5036E+01  -1.40687   3.51717
    3890.00   4.589950     0.4946E+01  -1.41472   3.53679
    3910.00   4.592176     0.4856E+01  -1.42264   3.55661
    3930.00   4.594393     0.4765E+01  -1.43089   3.57723
    3950.00   4.596597     0.4664E+01  -1.44020   3.60051
    3970.00   4.598790     0.4581E+01  -1.44800   3.61999
    3990.00   4.600973     0.4482E+01  -1.45748   3.64369
    4010.00   4.603145     0.4408E+01  -1.46471   3.66178
    4030.00   4.605305     0.4333E+01  -1.47214   3.68036
    4050.00   4.607455     0.4247E+01  -1.48091   3.70228
    4070.00   4.609594     0.4173E+01  -1.48856   3.72139
    4090.00   4.611723     0.4097E+01  -1.49647   3.74118
    4110.00   4.613842     0.4028E+01  -1.50391   3.75978
    4130.00   4.615950     0.3961E+01  -1.51110   3.77775
    4150.00   4.618048     0.3891E+01  -1.51892   3.79731
    4170.00   4.620136     0.3825E+01  -1.52635   3.81588
    4190.00   4.622214     0.3757E+01  -1.53415   3.83537
    4210.00   4.624282     0.3689E+01  -1.54204   3.85509
    4230.00   4.626340     0.3639E+01  -1.54796   3.86991
    4250.00   4.628389     0.3572E+01  -1.55600   3.89001
    4270.00   4.630428     0.3518E+01  -1.56270   3.90675
    4290.00   4.632457     0.3377E+01  -1.58039   3.95098
    4310.00   4.634478     0.3233E+01  -1.59931   3.99827
    4330.00   4.636488     0.3214E+01  -1.60191   4.00478
    4350.00   4.638489     0.3095E+01  -1.61827   4.04568
    4370.00   4.640481     0.3019E+01  -1.62909   4.07272
    4390.00   4.642465     0.2960E+01  -1.63769   4.09422
    4410.00   4.644439     0.2862E+01  -1.65228   4.13070
    4430.00   4.646404     0.2818E+01  -1.65894   4.14736
    4450.00   4.648360     0.2770E+01  -1.66652   4.16631
    4470.00   4.650308     0.2688E+01  -1.67956   4.19889
    4490.00   4.652246     0.2673E+01  -1.68193   4.20483
    4510.00   4.654177     0.2613E+01  -1.69182   4.22955
    4530.00   4.656098     0.2554E+01  -1.70180   4.25450
    4550.00   4.658011     0.2533E+01  -1.70524   4.26309
    4570.00   4.659916     0.2501E+01  -1.71085   4.27714
    4590.00   4.661813     0.2434E+01  -1.72265   4.30663
    4610.00   4.663701     0.2426E+01  -1.72413   4.31032
    4630.00   4.665581     0.2382E+01  -1.73203   4.33008
    4650.00   4.667453     0.2355E+01  -1.73697   4.34242
    4670.00   4.669317     0.2334E+01  -1.74077   4.35192
    4690.00   4.671173     0.2293E+01  -1.74858   4.37146
    4710.00   4.673021     0.2255E+01  -1.75572   4.38929
    4730.00   4.674861     0.2248E+01  -1.75725   4.39311
    4750.00   4.676694     0.2202E+01  -1.76610   4.41524
    4770.00   4.678518     0.2173E+01  -1.77196   4.42989
    4790.00   4.680336     0.2149E+01  -1.77665   4.44162
    4810.00   4.682145     0.2103E+01  -1.78613   4.46533
    4830.00   4.683947     0.2098E+01  -1.78712   4.46779
    4850.00   4.685741     0.2062E+01  -1.79462   4.48654
    4870.00   4.687529     0.2025E+01  -1.80245   4.50614
    4890.00   4.689309     0.1998E+01  -1.80844   4.52109
    4910.00   4.691082     0.1973E+01  -1.81390   4.53476
    4930.00   4.692847     0.1943E+01  -1.82059   4.55147
    4950.00   4.694605     0.1912E+01  -1.82755   4.56888
    4970.00   4.696356     0.1894E+01  -1.83154   4.57886
    4990.00   4.698101     0.1866E+01  -1.83797   4.59492
    5010.00   4.699838     0.1843E+01  -1.84336   4.60839
    5030.00   4.701568     0.1819E+01  -1.84913   4.62283
    5050.00   4.703291     0.1785E+01  -1.85741   4.64353
    5070.00   4.705008     0.1768E+01  -1.86157   4.65391
    5090.00   4.706717     0.1745E+01  -1.86718   4.66794
    5110.00   4.708421     0.1716E+01  -1.87445   4.68611
    5130.00   4.710117     0.1702E+01  -1.87809   4.69521
    5150.00   4.711807     0.1673E+01  -1.88538   4.71344
    5170.00   4.713490     0.1662E+01  -1.88845   4.72114
    5190.00   4.715167     0.1634E+01  -1.89582   4.73954
    5210.00   4.716838     0.1615E+01  -1.90073   4.75182
    5230.00   4.718502     0.1589E+01  -1.90778   4.76945
    5250.00   4.720160     0.1574E+01  -1.91190   4.77974
    5270.00   4.721810     0.1562E+01  -1.91520   4.78800
    5290.00   4.723455     0.1531E+01  -1.92391   4.80977
    5310.00   4.725095     0.1512E+01  -1.92946   4.82364
    5330.00   4.726727     0.1497E+01  -1.93383   4.83458
    5350.00   4.728354     0.1478E+01  -1.93915   4.84789
    5370.00   4.729974     0.1461E+01  -1.94420   4.86050
    5390.00   4.731589     0.1444E+01  -1.94935   4.87338
    5410.00   4.733197     0.1427E+01  -1.95466   4.88664
    5430.00   4.734800     0.1403E+01  -1.96195   4.90487
    5450.00   4.736397     0.1393E+01  -1.96506   4.91265
    5470.00   4.737988     0.1372E+01  -1.97170   4.92926
    5490.00   4.739573     0.1356E+01  -1.97657   4.94143
    5510.00   4.741152     0.1339E+01  -1.98224   4.95560
    5530.00   4.742725     0.1335E+01  -1.98350   4.95876
    5550.00   4.744293     0.1306E+01  -1.99317   4.98292
    5570.00   4.745855     0.1298E+01  -1.99552   4.98879
    5590.00   4.747412     0.1278E+01  -2.00228   5.00570
    5610.00   4.748963     0.1267E+01  -2.00630   5.01575
    5630.00   4.750508     0.1246E+01  -2.01340   5.03351
    5650.00   4.752048     0.1237E+01  -2.01664   5.04159
    5670.00   4.753583     0.1222E+01  -2.02193   5.05483
    5690.00   4.755112     0.1202E+01  -2.02893   5.07233
    5710.00   4.756636     0.1194E+01  -2.03185   5.07964
    5730.00   4.758155     0.1179E+01  -2.03735   5.09337
    5750.00   4.759668     0.1165E+01  -2.04254   5.10634
    5770.00   4.761176     0.1150E+01  -2.04820   5.12049
    5790.00   4.762679     0.1140E+01  -2.05199   5.12996
    5810.00   4.764176     0.1124E+01  -2.05833   5.14582
    5830.00   4.765669     0.1111E+01  -2.06314   5.15785
    5850.00   4.767156     0.1099E+01  -2.06809   5.17022
    5870.00   4.768638     0.1083E+01  -2.07438   5.18595
    5890.00   4.770115     0.1071E+01  -2.07917   5.19792
    5910.00   4.771587     0.1059E+01  -2.08390   5.20976
    5930.00   4.773055     0.1048E+01  -2.08873   5.22182
    5950.00   4.774517     0.1034E+01  -2.09455   5.23637
    5970.00   4.775974     0.1024E+01  -2.09870   5.24676
    5990.00   4.777427     0.1012E+01  -2.10383   5.25957
    6010.00   4.778874     0.1000E+01  -2.10892   5.27230
    6030.00   4.780317     0.9883E+00  -2.11406   5.28515
    6050.00   4.781755     0.9750E+00  -2.11997   5.29992
    6070.00   4.783189     0.9640E+00  -2.12489   5.31222
    6090.00   4.784617     0.9527E+00  -2.13000   5.32501
    6110.00   4.786041     0.9408E+00  -2.13546   5.33866
    6130.00   4.787460     0.9313E+00  -2.13989   5.34973
    6150.00   4.788875     0.9211E+00  -2.14466   5.36164
    6170.00   4.790285     0.9115E+00  -2.14922   5.37304
    6190.00   4.791691     0.9008E+00  -2.15435   5.38588
    6210.00   4.793092     0.8911E+00  -2.15905   5.39762
    6230.00   4.794488     0.8797E+00  -2.16464   5.41161
    6250.00   4.795880     0.8686E+00  -2.17016   5.42539
    6270.00   4.797267     0.8587E+00  -2.17513   5.43782
    6290.00   4.798651     0.8495E+00  -2.17978   5.44945
    6310.00   4.800029     0.8394E+00  -2.18497   5.46242
    6330.00   4.801404     0.8315E+00  -2.18910   5.47274
    6350.00   4.802773     0.8212E+00  -2.19450   5.48626
    6370.00   4.804139     0.8133E+00  -2.19870   5.49675
    6390.00   4.805501     0.8030E+00  -2.20423   5.51056
    6420.00   4.807535     0.7897E+00  -2.21147   5.52868
    6460.00   4.810232     0.7717E+00  -2.22152   5.55380
    6500.00   4.812913     0.7547E+00  -2.23119   5.57798
    6540.00   4.815578     0.7379E+00  -2.24094   5.60234
    6580.00   4.818226     0.7221E+00  -2.25034   5.62586
    6620.00   4.820858     0.7060E+00  -2.26018   5.65044
    6660.00   4.823474     0.6906E+00  -2.26971   5.67427
    6700.00   4.826075     0.6757E+00  -2.27918   5.69796
    6740.00   4.828660     0.6608E+00  -2.28889   5.72223
    6780.00   4.831230     0.6466E+00  -2.29831   5.74577
    6820.00   4.833784     0.6326E+00  -2.30780   5.76951
    6860.00   4.836324     0.6193E+00  -2.31704   5.79259
    6900.00   4.838849     0.6060E+00  -2.32649   5.81624
    6940.00   4.841359     0.5932E+00  -2.33578   5.83945
    6980.00   4.843855     0.5807E+00  -2.34500   5.86250
    7020.00   4.846337     0.5683E+00  -2.35439   5.88597
    7060.00   4.848804     0.5566E+00  -2.36341   5.90854
    7100.00   4.851258     0.5450E+00  -2.37259   5.93147
    7140.00   4.853698     0.5337E+00  -2.38163   5.95407
    7180.00   4.856124     0.5227E+00  -2.39074   5.97686
    7220.00   4.858537     0.5120E+00  -2.39972   5.99930
    7260.00   4.860937     0.5014E+00  -2.40875   6.02187
    7300.00   4.863323     0.4913E+00  -2.41763   6.04408
    7340.00   4.865696     0.4812E+00  -2.42661   6.06653
    7380.00   4.868056     0.4716E+00  -2.43537   6.08843
    7420.00   4.870404     0.4619E+00  -2.44443   6.11108
    7460.00   4.872739     0.4526E+00  -2.45322   6.13304
    7500.00   4.875061     0.4437E+00  -2.46185   6.15462
    7540.00   4.877371     0.4348E+00  -2.47062   6.17656
    7580.00   4.879669     0.4265E+00  -2.47900   6.19749
    7620.00   4.881955     0.4182E+00  -2.48760   6.21900
    7660.00   4.884229     0.4100E+00  -2.49615   6.24038
    7700.00   4.886491     0.4020E+00  -2.50474   6.26184
    7740.00   4.888741     0.3943E+00  -2.51315   6.28289
    7780.00   4.890980     0.3867E+00  -2.52157   6.30392
    7820.00   4.893207     0.3793E+00  -2.52998   6.32496
    7860.00   4.895422     0.3721E+00  -2.53833   6.34582
    7900.00   4.897627     0.3650E+00  -2.54666   6.36664
    7940.00   4.899820     0.3581E+00  -2.55494   6.38734
    7980.00   4.902003     0.3514E+00  -2.56315   6.40788
    8020.00   4.904174     0.3447E+00  -2.57149   6.42873
    8060.00   4.906335     0.3383E+00  -2.57965   6.44913
    8100.00   4.908485     0.3321E+00  -2.58769   6.46922
    8140.00   4.910625     0.3259E+00  -2.59585   6.48963
    8180.00   4.912753     0.3200E+00  -2.60381   6.50953
    8220.00   4.914872     0.3142E+00  -2.61181   6.52953
    8260.00   4.916980     0.3084E+00  -2.61982   6.54954
    8300.00   4.919078     0.3028E+00  -2.62775   6.56938
    8340.00   4.921166     0.2973E+00  -2.63577   6.58943
    8380.00   4.923244     0.2919E+00  -2.64366   6.60914
    8420.00   4.925312     0.2868E+00  -2.65138   6.62845
    8460.00   4.927370     0.2817E+00  -2.65923   6.64806
    8500.00   4.929419     0.2767E+00  -2.66697   6.66744
    8540.00   4.931458     0.2718E+00  -2.67469   6.68672
    8580.00   4.933487     0.2671E+00  -2.68236   6.70590
    8620.00   4.935507     0.2624E+00  -2.69002   6.72505
    8660.00   4.937518     0.2578E+00  -2.69761   6.74404
    8700.00   4.939519     0.2534E+00  -2.70523   6.76307
    8740.00   4.941511     0.2490E+00  -2.71279   6.78198
    8780.00   4.943495     0.2447E+00  -2.72034   6.80085
    8820.00   4.945469     0.2405E+00  -2.72791   6.81977
    8860.00   4.947433     0.2364E+00  -2.73535   6.83838
    8900.00   4.949390     0.2323E+00  -2.74282   6.85706
    8940.00   4.951338     0.2285E+00  -2.75016   6.87540
    8980.00   4.953277     0.2245E+00  -2.75767   6.89417
    9020.00   4.955207     0.2208E+00  -2.76488   6.91219
    9060.00   4.957129     0.2172E+00  -2.77215   6.93037
    9100.00   4.959042     0.2135E+00  -2.77966   6.94915
    9140.00   4.960946     0.2100E+00  -2.78676   6.96691
    9180.00   4.962843     0.2065E+00  -2.79398   6.98495
    9220.00   4.964731     0.2032E+00  -2.80108   7.00269
    9260.00   4.966611     0.1998E+00  -2.80826   7.02065
    9300.00   4.968483     0.1966E+00  -2.81538   7.03844
    9340.00   4.970347     0.1934E+00  -2.82250   7.05624
    9380.00   4.972203     0.1903E+00  -2.82955   7.07388
    9420.00   4.974051     0.1872E+00  -2.83660   7.09150
    9460.00   4.975891     0.1842E+00  -2.84365   7.10912
    9500.00   4.977724     0.1813E+00  -2.85063   7.12658
    9540.00   4.979548     0.1784E+00  -2.85758   7.14396
    9580.00   4.981365     0.1756E+00  -2.86450   7.16126
    9620.00   4.983175     0.1728E+00  -2.87142   7.17856
    9660.00   4.984977     0.1701E+00  -2.87828   7.19569
    9700.00   4.986772     0.1674E+00  -2.88512   7.21281
    9740.00   4.988559     0.1647E+00  -2.89216   7.23039
    9780.00   4.990339     0.1622E+00  -2.89882   7.24705
    9820.00   4.992111     0.1597E+00  -2.90553   7.26383
    9860.00   4.993877     0.1573E+00  -2.91228   7.28069
    9900.00   4.995635     0.1549E+00  -2.91898   7.29745
    9940.00   4.997386     0.1525E+00  -2.92571   7.31427
    9980.00   4.999130     0.1502E+00  -2.93237   7.33092
   10020.00   5.000868     0.1479E+00  -2.93901   7.34752
   20000.00   5.301030     0.1015E-01  -4.10258  10.25644
   40000.00   5.602060     0.6595E-03  -5.28974  13.22435
   60000.00   5.778151     0.1317E-03  -5.98937  14.97343
   80000.00   5.903090     0.4185E-04  -6.48724  16.21811
  100000.00   6.000000     0.1717E-04  -6.87406  17.18516
  120000.00   6.079181     0.8289E-05  -7.19046  17.97614
  140000.00   6.146128     0.4475E-05  -7.45817  18.64542
  160000.00   6.204120     0.2623E-05  -7.69018  19.22545
