age =    9.0    [Fe/H] =    0.00

wavele(nm) log wave(A)   Hlam       log(Hlam/Hlam(V))  Hlam(mag(V)) 
      89.50   2.951823     0.1631E-12 -15.08657  37.71642
      90.50   2.956649     0.2613E-12 -14.88187  37.20467
      91.50   2.961421     0.4088E-12 -14.68753  36.71883
      92.50   2.966142     0.3757E-10 -12.72427  31.81067
      93.50   2.970812     0.5251E-10 -12.57885  31.44712
      94.50   2.975432     0.7542E-10 -12.42160  31.05401
      95.50   2.980003     0.1135E-09 -12.24395  30.60987
      96.50   2.984527     0.1642E-09 -12.08367  30.20918
      97.50   2.989005     0.2193E-09 -11.95804  29.89511
      98.50   2.993436     0.3066E-09 -11.81258  29.53146
      99.50   2.997823     0.4146E-09 -11.68142  29.20355
     100.50   3.002166     0.6122E-09 -11.51219  28.78047
     101.50   3.006466     0.8278E-09 -11.38114  28.45284
     102.50   3.010724     0.9724E-09 -11.31126  28.27814
     103.50   3.014940     0.1542E-08 -11.11089  27.77721
     104.50   3.019116     0.2102E-08 -10.97644  27.44109
     105.50   3.023252     0.2712E-08 -10.86575  27.16438
     106.50   3.027350     0.3595E-08 -10.74337  26.85843
     107.50   3.031409     0.4835E-08 -10.61469  26.53671
     108.50   3.035430     0.6451E-08 -10.48948  26.22370
     109.50   3.039414     0.8127E-08 -10.38916  25.97291
     110.50   3.043362     0.4853E-07  -9.61304  24.03259
     111.50   3.047275     0.8924E-07  -9.34854  23.37136
     112.50   3.051152     0.1343E-06  -9.17111  22.92779
     113.50   3.054996     0.1984E-06  -9.00164  22.50411
     114.50   3.058805     0.2654E-06  -8.87514  22.18786
     115.50   3.062582     0.3080E-06  -8.81054  22.02634
     116.50   3.066326     0.4211E-06  -8.67475  21.68688
     117.50   3.070038     0.5406E-06  -8.56624  21.41560
     118.50   3.073718     0.5886E-06  -8.52927  21.32316
     119.50   3.077368     0.4661E-06  -8.63060  21.57650
     120.50   3.080987     0.5083E-06  -8.59295  21.48238
     121.50   3.084576     0.1095E-06  -9.25958  23.14896
     122.50   3.088136     0.6817E-06  -8.46549  21.16373
     123.50   3.091667     0.1428E-05  -8.14430  20.36075
     124.50   3.095169     0.2113E-05  -7.97421  19.93552
     125.50   3.098644     0.2611E-05  -7.88223  19.70558
     126.50   3.102091     0.2758E-05  -7.85848  19.64619
     127.50   3.105510     0.3464E-05  -7.75954  19.39885
     128.50   3.108903     0.4010E-05  -7.69596  19.23989
     129.50   3.112270     0.4875E-05  -7.61110  19.02776
     130.50   3.115611     0.5027E-05  -7.59782  18.99454
     131.50   3.118926     0.6360E-05  -7.49560  18.73901
     132.50   3.122216     0.6678E-05  -7.47446  18.68615
     133.50   3.125481     0.7450E-05  -7.42693  18.56732
     134.50   3.128722     0.8741E-05  -7.35754  18.39386
     135.50   3.131939     0.1007E-04  -7.29607  18.24017
     136.50   3.135133     0.1080E-04  -7.26569  18.16422
     137.50   3.138303     0.1163E-04  -7.23364  18.08409
     138.50   3.141450     0.1275E-04  -7.19358  17.98396
     139.50   3.144574     0.1435E-04  -7.14209  17.85522
     140.50   3.147676     0.1733E-04  -7.06021  17.65054
     141.50   3.150756     0.1958E-04  -7.00729  17.51823
     142.50   3.153815     0.2245E-04  -6.94778  17.36944
     143.50   3.156852     0.2648E-04  -6.87613  17.19032
     144.20   3.158965     0.3432E-04  -6.76359  16.90899
     144.70   3.160469     0.3077E-04  -6.81099  17.02748
     145.50   3.162863     0.3627E-04  -6.73956  16.84891
     146.50   3.165838     0.4602E-04  -6.63610  16.59026
     147.50   3.168792     0.5224E-04  -6.58109  16.45272
     148.50   3.171726     0.5630E-04  -6.54858  16.37146
     149.50   3.174641     0.7379E-04  -6.43110  16.07776
     150.50   3.177536     0.8965E-04  -6.34656  15.86640
     151.20   3.179552     0.6787E-04  -6.46742  16.16854
     151.70   3.180986     0.8675E-04  -6.36082  15.90204
     152.50   3.183270     0.2004E-03  -5.99713  14.99283
     153.50   3.186108     0.3223E-03  -5.79081  14.47702
     154.50   3.188928     0.2698E-03  -5.86802  14.67006
     155.50   3.191730     0.4350E-03  -5.66058  14.15144
     156.50   3.194514     0.4097E-03  -5.68665  14.21662
     157.50   3.197281     0.7396E-03  -5.43010  13.57524
     158.50   3.200029     0.8972E-03  -5.34619  13.36548
     159.50   3.202761     0.1048E-02  -5.27872  13.19681
     160.50   3.205475     0.1123E-02  -5.24882  13.12204
     161.50   3.208173     0.1234E-02  -5.20761  13.01903
     162.50   3.210853     0.1379E-02  -5.15958  12.89895
     163.50   3.213518     0.1613E-02  -5.09144  12.72859
     164.50   3.216166     0.2253E-02  -4.94634  12.36585
     165.50   3.218798     0.1439E-02  -5.14096  12.85240
     166.50   3.221414     0.2581E-02  -4.88730  12.21826
     167.20   3.223236     0.1820E-02  -5.03910  12.59776
     167.70   3.224533     0.6497E-02  -4.48635  11.21588
     168.50   3.226600     0.7343E-02  -4.43323  11.08308
     169.50   3.229170     0.9031E-02  -4.34335  10.85838
     170.50   3.231725     0.9799E-02  -4.30788  10.76971
     171.50   3.234264     0.9788E-02  -4.30840  10.77099
     172.50   3.236789     0.1227E-01  -4.21037  10.52592
     173.50   3.239300     0.1490E-01  -4.12604  10.31511
     174.50   3.241796     0.2014E-01  -3.99501   9.98753
     175.50   3.244277     0.2794E-01  -3.85289   9.63222
     176.50   3.246745     0.2486E-01  -3.90352   9.75880
     177.50   3.249198     0.2842E-01  -3.84545   9.61362
     178.50   3.251638     0.3700E-01  -3.73088   9.32719
     179.50   3.254065     0.4855E-01  -3.61294   9.03234
     180.50   3.256477     0.4784E-01  -3.61928   9.04821
     181.50   3.258877     0.4354E-01  -3.66021   9.15053
     182.50   3.261263     0.5483E-01  -3.56007   8.90018
     183.50   3.263636     0.5708E-01  -3.54263   8.85658
     184.50   3.265996     0.4247E-01  -3.67100   9.17750
     185.50   3.268344     0.6479E-01  -3.48755   8.71887
     186.50   3.270679     0.7877E-01  -3.40271   8.50679
     187.50   3.273001     0.8397E-01  -3.37497   8.43743
     188.50   3.275311     0.8999E-01  -3.34488   8.36220
     189.50   3.277609     0.1183E+00  -3.22627   8.06568
     190.50   3.279895     0.1139E+00  -3.24258   8.10645
     191.50   3.282169     0.1264E+00  -3.19722   7.99306
     192.50   3.284431     0.1199E+00  -3.22011   8.05027
     193.50   3.286681     0.8211E-01  -3.38469   8.46173
     194.50   3.288920     0.1630E+00  -3.08685   7.71712
     195.50   3.291147     0.1700E+00  -3.06861   7.67153
     196.70   3.293804     0.2231E+00  -2.95058   7.37646
     197.60   3.295787     0.2029E+00  -2.99185   7.47962
     198.40   3.297542     0.2566E+00  -2.88981   7.22452
     199.50   3.299943     0.2724E+00  -2.86393   7.15982
     200.50   3.302114     0.2614E+00  -2.88172   7.20429
     201.50   3.304275     0.2848E+00  -2.84453   7.11132
     202.50   3.306425     0.2265E+00  -2.94398   7.35995
     203.50   3.308564     0.3249E+00  -2.78740   6.96851
     204.50   3.310693     0.3788E+00  -2.72071   6.80177
     205.50   3.312812     0.3791E+00  -2.72028   6.80069
     206.50   3.314920     0.3749E+00  -2.72521   6.81301
     207.40   3.316809     0.4127E+00  -2.68346   6.70864
     207.80   3.317646     0.1309E+01  -2.18204   5.45509
     208.50   3.319106     0.1838E+01  -2.03464   5.08659
     209.50   3.321184     0.1672E+01  -2.07595   5.18987
     210.50   3.323252     0.1636E+01  -2.08526   5.21315
     211.50   3.325310     0.1940E+01  -2.01138   5.02844
     212.50   3.327359     0.1665E+01  -2.07765   5.19411
     213.50   3.329398     0.1623E+01  -2.08875   5.22188
     214.50   3.331427     0.2239E+01  -1.94898   4.87245
     215.50   3.333447     0.2156E+01  -1.96537   4.91343
     216.50   3.335458     0.1804E+01  -2.04294   5.10736
     217.50   3.337459     0.1808E+01  -2.04195   5.10488
     218.50   3.339452     0.2615E+01  -1.88154   4.70386
     219.50   3.341434     0.2451E+01  -1.90978   4.77445
     220.50   3.343409     0.2434E+01  -1.91278   4.78194
     221.50   3.345374     0.1718E+01  -2.06416   5.16041
     222.50   3.347330     0.2249E+01  -1.94718   4.86796
     223.50   3.349277     0.3259E+01  -1.78602   4.46505
     224.50   3.351216     0.3092E+01  -1.80890   4.52225
     225.50   3.353147     0.2176E+01  -1.96147   4.90366
     226.50   3.355068     0.1875E+01  -2.02605   5.06514
     227.50   3.356982     0.2103E+01  -1.97624   4.94060
     228.50   3.358886     0.3348E+01  -1.77436   4.43589
     229.50   3.360783     0.2562E+01  -1.89043   4.72607
     230.50   3.362671     0.3401E+01  -1.76749   4.41872
     231.50   3.364551     0.2698E+01  -1.86805   4.67013
     232.50   3.366423     0.2212E+01  -1.95422   4.88555
     233.50   3.368287     0.1841E+01  -2.03413   5.08531
     234.50   3.370143     0.1100E+01  -2.25781   5.64453
     235.50   3.371991     0.2537E+01  -1.89484   4.73709
     236.50   3.373831     0.1312E+01  -2.18129   5.45323
     237.50   3.375664     0.1813E+01  -2.04074   5.10185
     238.50   3.377488     0.9877E+00  -2.30447   5.76119
     239.50   3.379306     0.1305E+01  -2.18359   5.45897
     240.50   3.381115     0.1346E+01  -2.16991   5.42476
     241.50   3.382917     0.1630E+01  -2.08679   5.21697
     242.50   3.384712     0.3268E+01  -1.78487   4.46217
     243.50   3.386499     0.3375E+01  -1.77079   4.42697
     244.50   3.388279     0.4224E+01  -1.67333   4.18332
     245.50   3.390052     0.4640E+01  -1.63260   4.08151
     246.50   3.391817     0.3649E+01  -1.73689   4.34223
     247.50   3.393575     0.3146E+01  -1.80132   4.50331
     248.50   3.395326     0.1404E+01  -2.15162   5.37905
     249.50   3.397071     0.2112E+01  -1.97433   4.93582
     250.50   3.398808     0.3731E+01  -1.72726   4.31816
     251.30   3.400192     0.1306E+01  -2.18303   5.45756
     251.80   3.401056     0.9320E+00  -2.32968   5.82420
     252.50   3.402261     0.1095E+01  -2.25961   5.64903
     253.50   3.403978     0.2404E+01  -1.91812   4.79530
     254.50   3.405688     0.2582E+01  -1.88712   4.71780
     255.50   3.407391     0.5966E+01  -1.52344   3.80860
     256.50   3.409087     0.4005E+01  -1.69651   4.24127
     257.50   3.410777     0.5577E+01  -1.55271   3.88177
     258.50   3.412461     0.4740E+01  -1.62332   4.05829
     259.50   3.414137     0.4143E+01  -1.68177   4.20441
     260.50   3.415808     0.3454E+01  -1.76081   4.40203
     261.50   3.417472     0.3051E+01  -1.81465   4.53664
     262.50   3.419129     0.4495E+01  -1.64640   4.11601
     263.50   3.420781     0.9286E+01  -1.33127   3.32819
     264.50   3.422426     0.1283E+02  -1.19100   2.97750
     265.50   3.424065     0.1930E+02  -1.01355   2.53388
     266.50   3.425697     0.1116E+02  -1.25150   3.12876
     267.50   3.427324     0.1294E+02  -1.18730   2.96825
     268.50   3.428944     0.1563E+02  -1.10523   2.76306
     269.50   3.430559     0.1055E+02  -1.27568   3.18920
     270.50   3.432167     0.1371E+02  -1.16191   2.90478
     271.50   3.433770     0.9301E+01  -1.33055   3.32637
     272.50   3.435366     0.6575E+01  -1.48118   3.70295
     273.50   3.436957     0.9115E+01  -1.33933   3.34833
     274.50   3.438542     0.4730E+01  -1.62418   4.06045
     275.50   3.440122     0.6960E+01  -1.45647   3.64116
     276.50   3.441695     0.9682E+01  -1.31312   3.28281
     277.50   3.443263     0.1024E+02  -1.28862   3.22154
     278.50   3.444825     0.5531E+01  -1.55632   3.89080
     279.50   3.446382     0.2311E+01  -1.93528   4.83819
     280.50   3.447933     0.2882E+01  -1.83945   4.59862
     281.50   3.449478     0.8756E+01  -1.35680   3.39199
     282.50   3.451018     0.1368E+02  -1.16314   2.90784
     283.50   3.452553     0.1266E+02  -1.19650   2.99125
     284.50   3.454082     0.7986E+01  -1.39673   3.49183
     285.50   3.455606     0.3934E+01  -1.70428   4.26069
     286.50   3.457125     0.1233E+02  -1.20830   3.02075
     287.50   3.458638     0.1865E+02  -1.02834   2.57084
     288.50   3.460146     0.1658E+02  -1.07956   2.69890
     289.50   3.461648     0.2177E+02  -0.96131   2.40327
     291.00   3.463893     0.3127E+02  -0.80393   2.00982
     293.00   3.466868     0.2916E+02  -0.83425   2.08562
     295.00   3.469822     0.2888E+02  -0.83851   2.09627
     297.00   3.472756     0.3111E+02  -0.80621   2.01552
     299.00   3.475671     0.3321E+02  -0.77779   1.94448
     301.00   3.478566     0.3384E+02  -0.76961   1.92403
     303.00   3.481443     0.3681E+02  -0.73310   1.83275
     305.00   3.484300     0.3797E+02  -0.71961   1.79903
     307.00   3.487138     0.3722E+02  -0.72833   1.82082
     309.00   3.489959     0.3299E+02  -0.78067   1.95168
     311.00   3.492760     0.3924E+02  -0.70533   1.76331
     313.00   3.495544     0.3530E+02  -0.75135   1.87838
     315.00   3.498311     0.3505E+02  -0.75442   1.88604
     317.00   3.501059     0.4040E+02  -0.69265   1.73163
     319.00   3.503791     0.3437E+02  -0.76289   1.90722
     321.00   3.506505     0.3849E+02  -0.71379   1.78448
     323.00   3.509202     0.3266E+02  -0.78507   1.96268
     325.00   3.511883     0.4718E+02  -0.62536   1.56341
     327.00   3.514548     0.5456E+02  -0.56220   1.40551
     329.00   3.517196     0.5321E+02  -0.57311   1.43277
     331.00   3.519828     0.4912E+02  -0.60786   1.51966
     333.00   3.522444     0.5104E+02  -0.59120   1.47801
     335.00   3.525045     0.4969E+02  -0.60279   1.50698
     337.00   3.527630     0.3581E+02  -0.74505   1.86262
     339.00   3.530200     0.4227E+02  -0.67304   1.68260
     341.00   3.532754     0.4433E+02  -0.65243   1.63108
     343.00   3.535294     0.4767E+02  -0.62086   1.55216
     345.00   3.537819     0.5416E+02  -0.56541   1.41352
     347.00   3.540329     0.5650E+02  -0.54701   1.36753
     349.00   3.542825     0.6267E+02  -0.50200   1.25500
     351.00   3.545307     0.6580E+02  -0.48088   1.20221
     353.00   3.547775     0.5860E+02  -0.53122   1.32804
     355.00   3.550228     0.6535E+02  -0.48385   1.20962
     357.00   3.552668     0.5022E+02  -0.59819   1.49547
     359.00   3.555094     0.5308E+02  -0.57417   1.43542
     361.00   3.557507     0.6486E+02  -0.48712   1.21779
     363.00   3.559907     0.6608E+02  -0.47899   1.19747
     364.00   3.561101     0.6558E+02  -0.48231   1.20579
     365.00   3.562293     0.6951E+02  -0.45702   1.14254
     367.00   3.564666     0.7468E+02  -0.42589   1.06472
     369.00   3.567026     0.6628E+02  -0.47773   1.19433
     371.00   3.569374     0.6952E+02  -0.45700   1.14249
     373.00   3.571709     0.4472E+02  -0.64862   1.62155
     375.00   3.574031     0.5138E+02  -0.58831   1.47076
     377.00   3.576341     0.6821E+02  -0.46522   1.16306
     379.00   3.578639     0.7044E+02  -0.45124   1.12811
     381.00   3.580925     0.6583E+02  -0.48069   1.20173
     383.00   3.583199     0.3607E+02  -0.74192   1.85480
     385.00   3.585461     0.5099E+02  -0.59158   1.47894
     387.00   3.587711     0.5027E+02  -0.59777   1.49443
     389.00   3.589950     0.6437E+02  -0.49043   1.22608
     391.00   3.592177     0.7887E+02  -0.40219   1.00547
     393.00   3.594393     0.3669E+02  -0.73453   1.83632
     395.00   3.596597     0.6698E+02  -0.47312   1.18280
     397.00   3.598790     0.4567E+02  -0.63942   1.59856
     399.00   3.600973     0.1040E+03  -0.28202   0.70505
     401.00   3.603144     0.1155E+03  -0.23658   0.59144
     403.00   3.605305     0.1141E+03  -0.24179   0.60446
     405.00   3.607455     0.1092E+03  -0.26102   0.65255
     407.00   3.609594     0.1025E+03  -0.28837   0.72093
     409.00   3.611723     0.1286E+03  -0.18992   0.47479
     411.00   3.613842     0.1205E+03  -0.21807   0.54519
     413.00   3.615950     0.1170E+03  -0.23074   0.57686
     415.00   3.618048     0.1145E+03  -0.24010   0.60025
     417.00   3.620136     0.1164E+03  -0.23324   0.58309
     419.00   3.622214     0.1138E+03  -0.24298   0.60746
     421.00   3.624282     0.1154E+03  -0.23688   0.59221
     423.00   3.626340     0.1085E+03  -0.26382   0.65956
     425.00   3.628389     0.1171E+03  -0.23058   0.57644
     427.00   3.630428     0.1099E+03  -0.25807   0.64517
     429.00   3.632457     0.1023E+03  -0.28908   0.72271
     431.00   3.634477     0.8807E+02  -0.35425   0.88562
     433.00   3.636488     0.1324E+03  -0.17724   0.44310
     435.00   3.638489     0.1321E+03  -0.17828   0.44570
     437.00   3.640481     0.1441E+03  -0.14033   0.35082
     439.00   3.642465     0.1266E+03  -0.19678   0.49194
     441.00   3.644439     0.1349E+03  -0.16899   0.42248
     443.00   3.646404     0.1464E+03  -0.13351   0.33378
     445.00   3.648360     0.1479E+03  -0.12917   0.32291
     447.00   3.650307     0.1591E+03  -0.09737   0.24342
     449.00   3.652246     0.1639E+03  -0.08459   0.21147
     451.00   3.654176     0.1881E+03  -0.02468   0.06171
     453.00   3.656098     0.1632E+03  -0.08644   0.21610
     455.00   3.658011     0.1718E+03  -0.06395   0.15987
     457.00   3.659916     0.1872E+03  -0.02682   0.06706
     459.00   3.661813     0.1754E+03  -0.05513   0.13783
     461.00   3.663701     0.1815E+03  -0.04030   0.10076
     463.00   3.665581     0.1763E+03  -0.05287   0.13217
     465.00   3.667453     0.1791E+03  -0.04589   0.11472
     467.00   3.669317     0.1878E+03  -0.02539   0.06347
     469.00   3.671173     0.1834E+03  -0.03572   0.08930
     471.00   3.673021     0.1793E+03  -0.04542   0.11355
     473.00   3.674861     0.1857E+03  -0.03019   0.07547
     475.00   3.676694     0.1909E+03  -0.01837   0.04592
     477.00   3.678518     0.1866E+03  -0.02813   0.07032
     479.00   3.680336     0.1882E+03  -0.02439   0.06098
     481.00   3.682145     0.1886E+03  -0.02344   0.05860
     483.00   3.683947     0.1957E+03  -0.00759   0.01897
     485.00   3.685742     0.1860E+03  -0.02955   0.07386
     487.00   3.687529     0.1705E+03  -0.06725   0.16813
     489.00   3.689309     0.1897E+03  -0.02094   0.05235
     491.00   3.691082     0.1909E+03  -0.01832   0.04580
     493.00   3.692847     0.1875E+03  -0.02604   0.06510
     495.00   3.694605     0.1955E+03  -0.00793   0.01982
     497.00   3.696356     0.1878E+03  -0.02534   0.06336
     499.00   3.698101     0.1745E+03  -0.05733   0.14331
     501.00   3.699838     0.1642E+03  -0.08378   0.20944
     503.00   3.701568     0.1760E+03  -0.05356   0.13391
     505.00   3.703291     0.1762E+03  -0.05318   0.13296
     507.00   3.705008     0.1845E+03  -0.03311   0.08276
     509.00   3.706718     0.1741E+03  -0.05836   0.14591
     511.00   3.708421     0.1789E+03  -0.04657   0.11644
     513.00   3.710117     0.1732E+03  -0.06053   0.15133
     515.00   3.711807     0.1669E+03  -0.07650   0.19126
     517.00   3.713490     0.1488E+03  -0.12639   0.31596
     519.00   3.715167     0.1554E+03  -0.10771   0.26927
     521.00   3.716838     0.1702E+03  -0.06801   0.17002
     523.00   3.718502     0.1871E+03  -0.02710   0.06776
     525.00   3.720159     0.1960E+03  -0.00692   0.01729
     527.00   3.721811     0.1709E+03  -0.06635   0.16588
     529.00   3.723456     0.2003E+03   0.00262  -0.00656
     531.00   3.725095     0.2138E+03   0.03096  -0.07739
     533.00   3.726727     0.1865E+03  -0.02835   0.07088
     535.00   3.728354     0.2069E+03   0.01659  -0.04148
     537.00   3.729974     0.2050E+03   0.01257  -0.03143
     539.00   3.731589     0.2003E+03   0.00259  -0.00647
     541.00   3.733197     0.1972E+03  -0.00409   0.01023
     543.00   3.734800     0.2008E+03   0.00372  -0.00931
     545.00   3.736397     0.2052E+03   0.01308  -0.03270
     547.00   3.737987     0.1996E+03   0.00116  -0.00290
     549.00   3.739572     0.2028E+03   0.00790  -0.01975
     551.00   3.741152     0.1991E+03   0.00000   0.00000
     553.00   3.742725     0.2072E+03   0.01720  -0.04301
     555.00   3.744293     0.2111E+03   0.02544  -0.06360
     557.00   3.745855     0.2064E+03   0.01563  -0.03907
     559.00   3.747412     0.2008E+03   0.00359  -0.00896
     561.00   3.748963     0.2079E+03   0.01885  -0.04714
     563.00   3.750508     0.2064E+03   0.01572  -0.03931
     565.00   3.752048     0.2102E+03   0.02360  -0.05900
     567.00   3.753583     0.2051E+03   0.01294  -0.03234
     569.00   3.755112     0.2123E+03   0.02783  -0.06957
     571.00   3.756636     0.2053E+03   0.01339  -0.03347
     573.00   3.758155     0.2236E+03   0.05029  -0.12573
     575.00   3.759668     0.2156E+03   0.03459  -0.08648
     577.00   3.761176     0.2185E+03   0.04035  -0.10087
     579.00   3.762679     0.2098E+03   0.02272  -0.05679
     581.00   3.764176     0.2191E+03   0.04146  -0.10366
     583.00   3.765669     0.2248E+03   0.05261  -0.13154
     585.00   3.767156     0.2160E+03   0.03529  -0.08823
     587.00   3.768638     0.2155E+03   0.03437  -0.08593
     589.00   3.770115     0.1949E+03  -0.00927   0.02317
     591.00   3.771587     0.2120E+03   0.02731  -0.06828
     593.00   3.773055     0.2132E+03   0.02965  -0.07413
     595.00   3.774517     0.2138E+03   0.03085  -0.07712
     597.00   3.775974     0.2183E+03   0.03998  -0.09995
     599.00   3.777427     0.2152E+03   0.03367  -0.08418
     601.00   3.778874     0.2126E+03   0.02847  -0.07117
     603.00   3.780317     0.2189E+03   0.04115  -0.10288
     605.00   3.781755     0.2236E+03   0.05033  -0.12584
     607.00   3.783189     0.2229E+03   0.04900  -0.12251
     609.00   3.784617     0.2153E+03   0.03397  -0.08493
     611.00   3.786041     0.2169E+03   0.03711  -0.09277
     613.00   3.787461     0.2053E+03   0.01321  -0.03302
     615.00   3.788875     0.2104E+03   0.02391  -0.05977
     617.00   3.790285     0.1966E+03  -0.00546   0.01366
     619.00   3.791691     0.2081E+03   0.01927  -0.04818
     621.00   3.793092     0.2058E+03   0.01444  -0.03610
     623.00   3.794488     0.1992E+03   0.00025  -0.00062
     625.00   3.795880     0.1935E+03  -0.01248   0.03120
     627.00   3.797267     0.2036E+03   0.00969  -0.02423
     629.00   3.798651     0.2087E+03   0.02052  -0.05129
     631.00   3.800029     0.2046E+03   0.01180  -0.02949
     633.00   3.801404     0.2087E+03   0.02052  -0.05130
     635.00   3.802774     0.2104E+03   0.02404  -0.06009
     637.00   3.804139     0.2102E+03   0.02352  -0.05881
     639.00   3.805501     0.2146E+03   0.03260  -0.08150
     641.00   3.806858     0.2106E+03   0.02429  -0.06072
     643.00   3.808211     0.2129E+03   0.02919  -0.07298
     645.00   3.809560     0.2124E+03   0.02802  -0.07006
     647.00   3.810904     0.2122E+03   0.02759  -0.06898
     649.00   3.812245     0.2083E+03   0.01957  -0.04892
     651.00   3.813581     0.2162E+03   0.03580  -0.08951
     653.00   3.814913     0.2172E+03   0.03772  -0.09431
     655.00   3.816241     0.2118E+03   0.02691  -0.06728
     657.00   3.817565     0.2009E+03   0.00393  -0.00981
     659.00   3.818885     0.2116E+03   0.02649  -0.06623
     661.00   3.820201     0.2136E+03   0.03053  -0.07632
     663.00   3.821513     0.2103E+03   0.02371  -0.05928
     665.00   3.822822     0.2080E+03   0.01897  -0.04743
     667.00   3.824126     0.2022E+03   0.00662  -0.01654
     669.00   3.825426     0.2041E+03   0.01065  -0.02663
     671.00   3.826723     0.1948E+03  -0.00951   0.02379
     673.00   3.828015     0.1994E+03   0.00055  -0.00137
     675.00   3.829304     0.1957E+03  -0.00752   0.01879
     677.00   3.830589     0.1970E+03  -0.00471   0.01176
     679.00   3.831870     0.1950E+03  -0.00898   0.02245
     681.00   3.833147     0.1965E+03  -0.00572   0.01430
     683.00   3.834421     0.1998E+03   0.00149  -0.00372
     685.00   3.835690     0.1952E+03  -0.00858   0.02145
     687.00   3.836957     0.1992E+03   0.00010  -0.00025
     689.00   3.838219     0.2037E+03   0.00988  -0.02470
     691.00   3.839478     0.2054E+03   0.01355  -0.03387
     693.00   3.840733     0.2048E+03   0.01221  -0.03053
     695.00   3.841985     0.2057E+03   0.01418  -0.03544
     697.00   3.843233     0.2104E+03   0.02388  -0.05969
     699.00   3.844477     0.2114E+03   0.02592  -0.06481
     701.00   3.845718     0.2101E+03   0.02339  -0.05846
     703.00   3.846955     0.2123E+03   0.02788  -0.06969
     705.00   3.848189     0.2079E+03   0.01876  -0.04690
     707.00   3.849419     0.1967E+03  -0.00534   0.01335
     709.00   3.850646     0.1868E+03  -0.02770   0.06924
     711.00   3.851870     0.1806E+03  -0.04232   0.10581
     713.00   3.853090     0.1756E+03  -0.05446   0.13615
     715.00   3.854306     0.1753E+03  -0.05540   0.13849
     717.00   3.855519     0.1781E+03  -0.04839   0.12098
     719.00   3.856729     0.1748E+03  -0.05651   0.14129
     721.00   3.857935     0.1806E+03  -0.04246   0.10615
     723.00   3.859138     0.1864E+03  -0.02863   0.07158
     725.00   3.860338     0.1893E+03  -0.02187   0.05466
     727.00   3.861534     0.1921E+03  -0.01553   0.03882
     729.00   3.862728     0.1926E+03  -0.01432   0.03580
     731.00   3.863917     0.2022E+03   0.00660  -0.01649
     733.00   3.865104     0.2026E+03   0.00763  -0.01906
     735.00   3.866287     0.2089E+03   0.02086  -0.05216
     737.00   3.867467     0.2164E+03   0.03619  -0.09048
     739.00   3.868644     0.2122E+03   0.02773  -0.06931
     741.00   3.869818     0.2151E+03   0.03359  -0.08399
     743.00   3.870989     0.2212E+03   0.04571  -0.11428
     745.00   3.872156     0.2206E+03   0.04462  -0.11154
     747.00   3.873321     0.2270E+03   0.05691  -0.14228
     749.00   3.874482     0.2260E+03   0.05501  -0.13752
     751.00   3.875640     0.2276E+03   0.05817  -0.14541
     753.00   3.876795     0.2315E+03   0.06547  -0.16367
     755.00   3.877947     0.2332E+03   0.06871  -0.17178
     757.00   3.879096     0.2326E+03   0.06754  -0.16886
     759.00   3.880242     0.2243E+03   0.05182  -0.12956
     761.00   3.881385     0.2163E+03   0.03599  -0.08997
     763.00   3.882524     0.2080E+03   0.01892  -0.04730
     765.00   3.883662     0.1989E+03  -0.00048   0.00119
     767.00   3.884795     0.1873E+03  -0.02645   0.06612
     769.00   3.885926     0.1912E+03  -0.01754   0.04384
     771.00   3.887054     0.1876E+03  -0.02588   0.06469
     773.00   3.888180     0.1880E+03  -0.02492   0.06230
     775.00   3.889302     0.1865E+03  -0.02837   0.07092
     777.00   3.890421     0.1898E+03  -0.02090   0.05226
     779.00   3.891537     0.1905E+03  -0.01922   0.04806
     781.00   3.892651     0.1914E+03  -0.01725   0.04313
     783.00   3.893762     0.1914E+03  -0.01703   0.04258
     785.00   3.894870     0.1892E+03  -0.02210   0.05524
     787.00   3.895975     0.1933E+03  -0.01294   0.03235
     789.00   3.897077     0.1928E+03  -0.01396   0.03490
     791.00   3.898176     0.1878E+03  -0.02545   0.06362
     793.00   3.899273     0.1898E+03  -0.02078   0.05194
     795.00   3.900367     0.1901E+03  -0.02008   0.05021
     797.00   3.901458     0.1957E+03  -0.00750   0.01875
     799.00   3.902547     0.1962E+03  -0.00635   0.01588
     801.00   3.903632     0.2008E+03   0.00370  -0.00925
     803.00   3.904716     0.2024E+03   0.00709  -0.01773
     805.00   3.905796     0.2020E+03   0.00624  -0.01561
     807.00   3.906873     0.2075E+03   0.01798  -0.04494
     809.00   3.907948     0.2062E+03   0.01515  -0.03788
     811.00   3.909021     0.2084E+03   0.01976  -0.04940
     813.00   3.910090     0.2147E+03   0.03273  -0.08182
     815.00   3.911158     0.2175E+03   0.03831  -0.09577
     817.00   3.912222     0.2187E+03   0.04068  -0.10169
     819.00   3.913284     0.2144E+03   0.03211  -0.08027
     821.00   3.914343     0.2078E+03   0.01863  -0.04657
     823.00   3.915400     0.2087E+03   0.02034  -0.05086
     825.00   3.916454     0.2081E+03   0.01920  -0.04800
     827.00   3.917506     0.2094E+03   0.02179  -0.05447
     829.00   3.918555     0.2069E+03   0.01668  -0.04170
     831.00   3.919601     0.2005E+03   0.00298  -0.00745
     833.00   3.920645     0.1990E+03  -0.00016   0.00040
     835.00   3.921686     0.1984E+03  -0.00160   0.00401
     837.00   3.922725     0.1997E+03   0.00133  -0.00333
     839.00   3.923762     0.1943E+03  -0.01070   0.02674
     841.00   3.924796     0.2000E+03   0.00194  -0.00485
     843.00   3.925828     0.1935E+03  -0.01244   0.03111
     845.00   3.926857     0.1852E+03  -0.03156   0.07890
     847.00   3.927883     0.1842E+03  -0.03373   0.08433
     849.00   3.928908     0.1878E+03  -0.02535   0.06338
     851.00   3.929929     0.1797E+03  -0.04456   0.11141
     853.00   3.930949     0.1873E+03  -0.02660   0.06650
     855.00   3.931966     0.1816E+03  -0.03994   0.09984
     857.00   3.932981     0.1929E+03  -0.01380   0.03449
     859.00   3.933993     0.1909E+03  -0.01818   0.04546
     861.00   3.935003     0.1941E+03  -0.01114   0.02784
     863.00   3.936011     0.1981E+03  -0.00217   0.00542
     865.00   3.937016     0.1998E+03   0.00147  -0.00368
     867.00   3.938019     0.1882E+03  -0.02447   0.06118
     869.00   3.939020     0.1965E+03  -0.00578   0.01445
     871.00   3.940018     0.2023E+03   0.00689  -0.01724
     873.00   3.941014     0.2038E+03   0.01008  -0.02520
     875.00   3.942008     0.2025E+03   0.00726  -0.01814
     877.00   3.943000     0.2049E+03   0.01239  -0.03096
     879.00   3.943989     0.2082E+03   0.01930  -0.04825
     881.00   3.944976     0.2046E+03   0.01189  -0.02972
     883.00   3.945961     0.2072E+03   0.01737  -0.04342
     885.00   3.946943     0.2043E+03   0.01127  -0.02818
     887.00   3.947924     0.1963E+03  -0.00624   0.01560
     889.00   3.948902     0.1977E+03  -0.00304   0.00760
     891.00   3.949878     0.2000E+03   0.00193  -0.00483
     893.00   3.950851     0.1970E+03  -0.00462   0.01155
     895.00   3.951823     0.1978E+03  -0.00279   0.00697
     897.00   3.952792     0.1985E+03  -0.00135   0.00337
     899.00   3.953760     0.1990E+03  -0.00034   0.00084
     901.00   3.954725     0.1942E+03  -0.01074   0.02685
     903.00   3.955688     0.2014E+03   0.00500  -0.01249
     905.00   3.956649     0.2072E+03   0.01734  -0.04336
     907.00   3.957607     0.2072E+03   0.01737  -0.04341
     909.00   3.958564     0.2037E+03   0.00987  -0.02468
     911.00   3.959518     0.2058E+03   0.01444  -0.03611
     913.00   3.960471     0.2088E+03   0.02065  -0.05163
     915.00   3.961421     0.2076E+03   0.01804  -0.04511
     917.00   3.962369     0.2071E+03   0.01702  -0.04255
     919.00   3.963315     0.2085E+03   0.02010  -0.05025
     921.00   3.964260     0.2013E+03   0.00474  -0.01184
     923.00   3.965202     0.1994E+03   0.00069  -0.00172
     925.00   3.966142     0.1974E+03  -0.00373   0.00934
     927.00   3.967080     0.1997E+03   0.00136  -0.00339
     929.00   3.968016     0.1960E+03  -0.00677   0.01694
     931.00   3.968950     0.1971E+03  -0.00439   0.01097
     933.00   3.969882     0.1977E+03  -0.00308   0.00770
     935.00   3.970812     0.1974E+03  -0.00376   0.00939
     937.00   3.971740     0.1936E+03  -0.01220   0.03050
     939.00   3.972666     0.1974E+03  -0.00380   0.00950
     941.00   3.973590     0.1942E+03  -0.01093   0.02733
     943.00   3.974512     0.1980E+03  -0.00244   0.00610
     945.00   3.975432     0.1954E+03  -0.00807   0.02018
     947.00   3.976350     0.1995E+03   0.00079  -0.00196
     949.00   3.977266     0.2000E+03   0.00199  -0.00497
     951.00   3.978180     0.1962E+03  -0.00646   0.01614
     953.00   3.979093     0.1980E+03  -0.00243   0.00609
     955.00   3.980003     0.1951E+03  -0.00886   0.02215
     957.00   3.980912     0.1968E+03  -0.00504   0.01260
     959.00   3.981819     0.1996E+03   0.00104  -0.00260
     961.00   3.982723     0.1973E+03  -0.00386   0.00964
     963.00   3.983626     0.1985E+03  -0.00127   0.00318
     965.00   3.984527     0.1957E+03  -0.00745   0.01863
     967.00   3.985426     0.1960E+03  -0.00683   0.01708
     969.00   3.986324     0.1982E+03  -0.00204   0.00509
     971.00   3.987219     0.1958E+03  -0.00724   0.01811
     973.00   3.988113     0.1942E+03  -0.01078   0.02695
     975.00   3.989005     0.1937E+03  -0.01197   0.02992
     977.00   3.989895     0.1942E+03  -0.01077   0.02693
     979.00   3.990783     0.1921E+03  -0.01553   0.03883
     981.00   3.991669     0.1959E+03  -0.00694   0.01736
     983.00   3.992553     0.1944E+03  -0.01041   0.02601
     985.00   3.993436     0.1954E+03  -0.00809   0.02023
     987.00   3.994317     0.1940E+03  -0.01119   0.02797
     989.00   3.995196     0.1937E+03  -0.01195   0.02987
     991.00   3.996074     0.1933E+03  -0.01280   0.03200
     993.00   3.996949     0.1940E+03  -0.01135   0.02837
     995.00   3.997823     0.1943E+03  -0.01067   0.02668
     997.00   3.998695     0.1943E+03  -0.01057   0.02643
     999.00   3.999566     0.1937E+03  -0.01194   0.02985
    1003.00   4.001301     0.1932E+03  -0.01318   0.03294
    1008.00   4.003461     0.1916E+03  -0.01668   0.04171
    1013.00   4.005610     0.1931E+03  -0.01335   0.03337
    1018.00   4.007748     0.1910E+03  -0.01805   0.04512
    1023.00   4.009875     0.1912E+03  -0.01752   0.04381
    1028.00   4.011993     0.1913E+03  -0.01741   0.04352
    1033.00   4.014100     0.1891E+03  -0.02233   0.05582
    1038.00   4.016197     0.1881E+03  -0.02476   0.06190
    1043.00   4.018284     0.1887E+03  -0.02339   0.05849
    1048.00   4.020361     0.1873E+03  -0.02656   0.06640
    1053.00   4.022429     0.1864E+03  -0.02865   0.07163
    1058.00   4.024486     0.1839E+03  -0.03442   0.08606
    1063.00   4.026533     0.1830E+03  -0.03654   0.09136
    1068.00   4.028571     0.1812E+03  -0.04090   0.10224
    1073.00   4.030600     0.1816E+03  -0.03998   0.09996
    1078.00   4.032619     0.1802E+03  -0.04326   0.10814
    1083.00   4.034628     0.1778E+03  -0.04913   0.12282
    1088.00   4.036629     0.1768E+03  -0.05161   0.12901
    1093.00   4.038620     0.1761E+03  -0.05330   0.13326
    1098.00   4.040603     0.1736E+03  -0.05954   0.14886
    1103.00   4.042576     0.1730E+03  -0.06116   0.15290
    1108.00   4.044539     0.1708E+03  -0.06649   0.16623
    1113.00   4.046495     0.1705E+03  -0.06724   0.16810
    1118.00   4.048442     0.1695E+03  -0.06979   0.17448
    1123.00   4.050380     0.1696E+03  -0.06971   0.17427
    1128.00   4.052309     0.1684E+03  -0.07265   0.18162
    1133.00   4.054230     0.1683E+03  -0.07310   0.18275
    1138.00   4.056142     0.1675E+03  -0.07511   0.18778
    1143.00   4.058046     0.1664E+03  -0.07806   0.19515
    1148.00   4.059942     0.1676E+03  -0.07491   0.18728
    1153.00   4.061830     0.1674E+03  -0.07541   0.18853
    1158.00   4.063708     0.1659E+03  -0.07918   0.19796
    1163.00   4.065579     0.1643E+03  -0.08349   0.20873
    1168.00   4.067443     0.1642E+03  -0.08366   0.20914
    1173.00   4.069298     0.1647E+03  -0.08232   0.20579
    1178.00   4.071145     0.1624E+03  -0.08838   0.22095
    1183.00   4.072985     0.1613E+03  -0.09152   0.22881
    1188.00   4.074817     0.1596E+03  -0.09599   0.23997
    1193.00   4.076640     0.1615E+03  -0.09104   0.22761
    1198.00   4.078457     0.1576E+03  -0.10164   0.25410
    1203.00   4.080266     0.1596E+03  -0.09604   0.24011
    1208.00   4.082067     0.1584E+03  -0.09928   0.24821
    1213.00   4.083861     0.1585E+03  -0.09909   0.24772
    1218.00   4.085648     0.1586E+03  -0.09877   0.24692
    1223.00   4.087426     0.1577E+03  -0.10113   0.25281
    1228.00   4.089198     0.1568E+03  -0.10366   0.25914
    1233.00   4.090963     0.1560E+03  -0.10584   0.26461
    1238.00   4.092721     0.1556E+03  -0.10706   0.26764
    1243.00   4.094471     0.1540E+03  -0.11167   0.27916
    1248.00   4.096214     0.1539E+03  -0.11171   0.27928
    1253.00   4.097951     0.1528E+03  -0.11492   0.28730
    1258.00   4.099681     0.1523E+03  -0.11649   0.29122
    1263.00   4.101403     0.1517E+03  -0.11799   0.29497
    1268.00   4.103119     0.1507E+03  -0.12098   0.30246
    1273.00   4.104828     0.1506E+03  -0.12127   0.30317
    1278.00   4.106531     0.1506E+03  -0.12121   0.30302
    1283.00   4.108227     0.1468E+03  -0.13228   0.33071
    1288.00   4.109916     0.1484E+03  -0.12757   0.31892
    1293.00   4.111598     0.1472E+03  -0.13122   0.32806
    1298.00   4.113275     0.1481E+03  -0.12852   0.32129
    1303.00   4.114944     0.1466E+03  -0.13282   0.33206
    1308.00   4.116608     0.1468E+03  -0.13221   0.33054
    1313.00   4.118265     0.1446E+03  -0.13885   0.34711
    1318.00   4.119915     0.1441E+03  -0.14028   0.35070
    1323.00   4.121560     0.1441E+03  -0.14030   0.35076
    1328.00   4.123198     0.1422E+03  -0.14607   0.36517
    1333.00   4.124830     0.1425E+03  -0.14521   0.36303
    1338.00   4.126456     0.1414E+03  -0.14867   0.37166
    1343.00   4.128076     0.1416E+03  -0.14812   0.37030
    1348.00   4.129690     0.1406E+03  -0.15109   0.37772
    1353.00   4.131298     0.1400E+03  -0.15306   0.38266
    1358.00   4.132900     0.1382E+03  -0.15853   0.39632
    1363.00   4.134496     0.1379E+03  -0.15952   0.39879
    1368.00   4.136086     0.1385E+03  -0.15755   0.39387
    1373.00   4.137671     0.1390E+03  -0.15602   0.39006
    1378.00   4.139249     0.1388E+03  -0.15669   0.39173
    1383.00   4.140822     0.1388E+03  -0.15685   0.39212
    1388.00   4.142389     0.1375E+03  -0.16067   0.40168
    1393.00   4.143951     0.1289E+03  -0.18889   0.47223
    1398.00   4.145507     0.1296E+03  -0.18658   0.46644
    1403.00   4.147058     0.1285E+03  -0.19008   0.47520
    1408.00   4.148602     0.1293E+03  -0.18754   0.46884
    1413.00   4.150142     0.1282E+03  -0.19113   0.47782
    1418.00   4.151676     0.1290E+03  -0.18855   0.47136
    1423.00   4.153205     0.1280E+03  -0.19187   0.47967
    1428.00   4.154728     0.1269E+03  -0.19572   0.48931
    1433.00   4.156246     0.1290E+03  -0.18859   0.47147
    1438.00   4.157759     0.1296E+03  -0.18658   0.46645
    1443.00   4.159266     0.1275E+03  -0.19365   0.48412
    1448.00   4.160769     0.1294E+03  -0.18706   0.46765
    1453.00   4.162266     0.1285E+03  -0.19019   0.47548
    1457.00   4.163460     0.1291E+03  -0.18813   0.47034
    1462.00   4.164948     0.1244E+03  -0.20439   0.51097
    1468.00   4.166726     0.1250E+03  -0.20211   0.50526
    1473.00   4.168202     0.1242E+03  -0.20482   0.51205
    1478.00   4.169674     0.1252E+03  -0.20158   0.50395
    1483.00   4.171141     0.1258E+03  -0.19958   0.49894
    1488.00   4.172603     0.1251E+03  -0.20178   0.50445
    1493.00   4.174060     0.1276E+03  -0.19322   0.48305
    1498.00   4.175512     0.1271E+03  -0.19509   0.48773
    1503.00   4.176959     0.1260E+03  -0.19871   0.49677
    1508.00   4.178401     0.1264E+03  -0.19750   0.49376
    1513.00   4.179839     0.1282E+03  -0.19103   0.47758
    1518.00   4.181272     0.1287E+03  -0.18943   0.47358
    1523.00   4.182700     0.1287E+03  -0.18955   0.47387
    1528.00   4.184123     0.1295E+03  -0.18681   0.46703
    1533.00   4.185542     0.1292E+03  -0.18790   0.46975
    1538.00   4.186956     0.1270E+03  -0.19545   0.48862
    1543.00   4.188366     0.1281E+03  -0.19152   0.47880
    1548.00   4.189771     0.1285E+03  -0.19026   0.47564
    1553.00   4.191172     0.1279E+03  -0.19232   0.48081
    1558.00   4.192567     0.1242E+03  -0.20511   0.51277
    1563.00   4.193959     0.1257E+03  -0.19964   0.49911
    1568.00   4.195346     0.1254E+03  -0.20074   0.50185
    1573.00   4.196729     0.1276E+03  -0.19328   0.48320
    1578.00   4.198107     0.1172E+03  -0.23017   0.57542
    1583.00   4.199481     0.1211E+03  -0.21577   0.53943
    1588.00   4.200850     0.1214E+03  -0.21491   0.53728
    1593.00   4.202216     0.1246E+03  -0.20360   0.50901
    1598.00   4.203577     0.1275E+03  -0.19359   0.48398
    1605.00   4.205475     0.1213E+03  -0.21521   0.53803
    1615.00   4.208173     0.1246E+03  -0.20363   0.50907
    1625.00   4.210854     0.1199E+03  -0.22038   0.55096
    1635.00   4.213518     0.1236E+03  -0.20724   0.51811
    1645.00   4.216166     0.1189E+03  -0.22399   0.55997
    1655.00   4.218798     0.1208E+03  -0.21715   0.54288
    1665.00   4.221415     0.1172E+03  -0.23007   0.57517
    1675.00   4.224015     0.1177E+03  -0.22835   0.57087
    1685.00   4.226600     0.1174E+03  -0.22927   0.57317
    1695.00   4.229170     0.1151E+03  -0.23789   0.59472
    1705.00   4.231725     0.1133E+03  -0.24470   0.61174
    1715.00   4.234264     0.1111E+03  -0.25325   0.63312
    1725.00   4.236789     0.1090E+03  -0.26179   0.65447
    1735.00   4.239300     0.1059E+03  -0.27414   0.68534
    1745.00   4.241796     0.1046E+03  -0.27948   0.69870
    1755.00   4.244277     0.1033E+03  -0.28494   0.71235
    1765.00   4.246745     0.1010E+03  -0.29477   0.73693
    1775.00   4.249198     0.9882E+02  -0.30424   0.76059
    1785.00   4.251638     0.9755E+02  -0.30984   0.77461
    1795.00   4.254065     0.9541E+02  -0.31951   0.79877
    1805.00   4.256477     0.9342E+02  -0.32865   0.82163
    1815.00   4.258877     0.9173E+02  -0.33655   0.84139
    1825.00   4.261263     0.9035E+02  -0.34314   0.85785
    1835.00   4.263636     0.8895E+02  -0.34993   0.87482
    1845.00   4.265996     0.8721E+02  -0.35850   0.89624
    1855.00   4.268344     0.8633E+02  -0.36291   0.90729
    1865.00   4.270679     0.8436E+02  -0.37297   0.93242
    1875.00   4.273001     0.8259E+02  -0.38216   0.95541
    1885.00   4.275311     0.8178E+02  -0.38643   0.96608
    1895.00   4.277609     0.7906E+02  -0.40112   1.00280
    1905.00   4.279895     0.7897E+02  -0.40162   1.00405
    1915.00   4.282169     0.7729E+02  -0.41097   1.02742
    1925.00   4.284431     0.7592E+02  -0.41871   1.04679
    1935.00   4.286681     0.7390E+02  -0.43044   1.07609
    1945.00   4.288919     0.7210E+02  -0.44114   1.10284
    1955.00   4.291147     0.7149E+02  -0.44484   1.11211
    1965.00   4.293363     0.7007E+02  -0.45357   1.13393
    1975.00   4.295567     0.6839E+02  -0.46409   1.16022
    1985.00   4.297760     0.6738E+02  -0.47058   1.17645
    1995.00   4.299943     0.6644E+02  -0.47668   1.19171
    2005.00   4.302114     0.6583E+02  -0.48068   1.20171
    2015.00   4.304275     0.6488E+02  -0.48699   1.21747
    2025.00   4.306425     0.6338E+02  -0.49714   1.24285
    2035.00   4.308564     0.6245E+02  -0.50352   1.25881
    2045.00   4.310693     0.6202E+02  -0.50656   1.26640
    2055.00   4.312812     0.6097E+02  -0.51398   1.28496
    2065.00   4.314920     0.5993E+02  -0.52144   1.30361
    2075.00   4.317018     0.5918E+02  -0.52688   1.31721
    2085.00   4.319106     0.5828E+02  -0.53360   1.33399
    2095.00   4.321184     0.5723E+02  -0.54147   1.35369
    2105.00   4.323252     0.5677E+02  -0.54500   1.36250
    2115.00   4.325311     0.5579E+02  -0.55250   1.38126
    2125.00   4.327359     0.5494E+02  -0.55920   1.39800
    2135.00   4.329398     0.5435E+02  -0.56385   1.40963
    2145.00   4.331428     0.5350E+02  -0.57072   1.42679
    2155.00   4.333447     0.5267E+02  -0.57749   1.44373
    2165.00   4.335458     0.5165E+02  -0.58598   1.46495
    2175.00   4.337460     0.5094E+02  -0.59202   1.48006
    2185.00   4.339452     0.5029E+02  -0.59758   1.49396
    2195.00   4.341434     0.4963E+02  -0.60331   1.50827
    2205.00   4.343409     0.4851E+02  -0.61326   1.53316
    2215.00   4.345374     0.4823E+02  -0.61577   1.53943
    2225.00   4.347330     0.4716E+02  -0.62554   1.56385
    2235.00   4.349277     0.4653E+02  -0.63136   1.57841
    2245.00   4.351216     0.4585E+02  -0.63777   1.59443
    2255.00   4.353147     0.4524E+02  -0.64352   1.60879
    2265.00   4.355068     0.4434E+02  -0.65225   1.63063
    2275.00   4.356981     0.4396E+02  -0.65603   1.64007
    2285.00   4.358886     0.4308E+02  -0.66479   1.66197
    2295.00   4.360783     0.3461E+02  -0.75991   1.89978
    2305.00   4.362671     0.3838E+02  -0.71499   1.78747
    2315.00   4.364551     0.3826E+02  -0.71640   1.79099
    2325.00   4.366423     0.3214E+02  -0.79199   1.97998
    2335.00   4.368287     0.3522E+02  -0.75234   1.88085
    2345.00   4.370143     0.3238E+02  -0.78878   1.97194
    2355.00   4.371991     0.2984E+02  -0.82422   2.06054
    2365.00   4.373831     0.3250E+02  -0.78726   1.96814
    2375.00   4.375664     0.3033E+02  -0.81716   2.04290
    2385.00   4.377488     0.2813E+02  -0.84988   2.12470
    2395.00   4.379306     0.3020E+02  -0.81901   2.04752
    2405.00   4.381115     0.2895E+02  -0.83741   2.09352
    2415.00   4.382917     0.2662E+02  -0.87391   2.18477
    2425.00   4.384712     0.2833E+02  -0.84677   2.11693
    2435.00   4.386499     0.2698E+02  -0.86802   2.17005
    2445.00   4.388279     0.2709E+02  -0.86623   2.16557
    2455.00   4.390052     0.2615E+02  -0.88154   2.20384
    2465.00   4.391817     0.2612E+02  -0.88206   2.20515
    2475.00   4.393575     0.2543E+02  -0.89367   2.23418
    2485.00   4.395327     0.2217E+02  -0.95339   2.38348
    2495.00   4.397071     0.2125E+02  -0.97169   2.42922
    2505.00   4.398808     0.2164E+02  -0.96385   2.40963
    2515.00   4.400538     0.2067E+02  -0.98380   2.45949
    2525.00   4.402262     0.2124E+02  -0.97196   2.42990
    2535.00   4.403978     0.2134E+02  -0.96994   2.42484
    2545.00   4.405688     0.2117E+02  -0.97344   2.43360
    2555.00   4.407391     0.2120E+02  -0.97285   2.43212
    2565.00   4.409087     0.2142E+02  -0.96820   2.42051
    2575.00   4.410777     0.2164E+02  -0.96382   2.40954
    2585.00   4.412460     0.2114E+02  -0.97397   2.43493
    2595.00   4.414137     0.2124E+02  -0.97184   2.42959
    2605.00   4.415808     0.2127E+02  -0.97136   2.42840
    2615.00   4.417472     0.2094E+02  -0.97806   2.44516
    2625.00   4.419129     0.2064E+02  -0.98432   2.46080
    2635.00   4.420781     0.2066E+02  -0.98389   2.45971
    2645.00   4.422426     0.2049E+02  -0.98749   2.46873
    2655.00   4.424065     0.2025E+02  -0.99275   2.48188
    2665.00   4.425697     0.1995E+02  -0.99924   2.49811
    2675.00   4.427324     0.2012E+02  -0.99540   2.48849
    2685.00   4.428945     0.1992E+02  -0.99984   2.49960
    2695.00   4.430559     0.1957E+02  -1.00754   2.51884
    2705.00   4.432167     0.1955E+02  -1.00787   2.51966
    2715.00   4.433770     0.1938E+02  -1.01168   2.52920
    2725.00   4.435367     0.1927E+02  -1.01421   2.53552
    2735.00   4.436957     0.1896E+02  -1.02125   2.55314
    2745.00   4.438542     0.1892E+02  -1.02220   2.55551
    2755.00   4.440122     0.1880E+02  -1.02497   2.56243
    2765.00   4.441695     0.1857E+02  -1.03027   2.57569
    2775.00   4.443263     0.1833E+02  -1.03581   2.58953
    2785.00   4.444825     0.1826E+02  -1.03749   2.59372
    2795.00   4.446382     0.1818E+02  -1.03950   2.59874
    2805.00   4.447933     0.1799E+02  -1.04398   2.60994
    2815.00   4.449478     0.1777E+02  -1.04948   2.62370
    2825.00   4.451018     0.1764E+02  -1.05260   2.63149
    2835.00   4.452553     0.1753E+02  -1.05525   2.63812
    2845.00   4.454082     0.1733E+02  -1.06025   2.65064
    2855.00   4.455606     0.1716E+02  -1.06451   2.66128
    2865.00   4.457125     0.1701E+02  -1.06845   2.67113
    2875.00   4.458638     0.1685E+02  -1.07261   2.68153
    2885.00   4.460146     0.1670E+02  -1.07637   2.69093
    2895.00   4.461648     0.1655E+02  -1.08038   2.70095
    2905.00   4.463146     0.1638E+02  -1.08479   2.71199
    2915.00   4.464639     0.1624E+02  -1.08849   2.72121
    2925.00   4.466126     0.1600E+02  -1.09495   2.73739
    2935.00   4.467608     0.1594E+02  -1.09668   2.74170
    2945.00   4.469085     0.1575E+02  -1.10175   2.75437
    2955.00   4.470557     0.1561E+02  -1.10568   2.76420
    2965.00   4.472025     0.1549E+02  -1.10904   2.77260
    2975.00   4.473487     0.1534E+02  -1.11316   2.78290
    2985.00   4.474944     0.1517E+02  -1.11798   2.79495
    2995.00   4.476397     0.1502E+02  -1.12245   2.80613
    3005.00   4.477844     0.1488E+02  -1.12637   2.81592
    3015.00   4.479287     0.1479E+02  -1.12925   2.82313
    3025.00   4.480725     0.1463E+02  -1.13374   2.83435
    3035.00   4.482159     0.1448E+02  -1.13835   2.84587
    3045.00   4.483587     0.1440E+02  -1.14064   2.85160
    3055.00   4.485011     0.1427E+02  -1.14477   2.86192
    3065.00   4.486430     0.1414E+02  -1.14867   2.87167
    3075.00   4.487845     0.1404E+02  -1.15175   2.87937
    3085.00   4.489255     0.1388E+02  -1.15670   2.89175
    3095.00   4.490661     0.1378E+02  -1.15992   2.89981
    3105.00   4.492062     0.1368E+02  -1.16290   2.90725
    3115.00   4.493458     0.1350E+02  -1.16882   2.92206
    3125.00   4.494850     0.1342E+02  -1.17130   2.92825
    3135.00   4.496238     0.1330E+02  -1.17515   2.93788
    3145.00   4.497621     0.1318E+02  -1.17926   2.94815
    3155.00   4.499000     0.1304E+02  -1.18383   2.95958
    3165.00   4.500374     0.1291E+02  -1.18823   2.97057
    3175.00   4.501744     0.1281E+02  -1.19145   2.97862
    3185.00   4.503109     0.1269E+02  -1.19559   2.98899
    3195.00   4.504471     0.1258E+02  -1.19926   2.99815
    3210.00   4.506505     0.1239E+02  -1.20585   3.01462
    3230.00   4.509202     0.1215E+02  -1.21446   3.03615
    3250.00   4.511883     0.1192E+02  -1.22289   3.05722
    3270.00   4.514548     0.1168E+02  -1.23170   3.07925
    3290.00   4.517196     0.1143E+02  -1.24097   3.10243
    3310.00   4.519828     0.1122E+02  -1.24922   3.12305
    3330.00   4.522444     0.1098E+02  -1.25834   3.14585
    3350.00   4.525045     0.1078E+02  -1.26637   3.16592
    3370.00   4.527630     0.1056E+02  -1.27554   3.18885
    3390.00   4.530200     0.1033E+02  -1.28488   3.21220
    3410.00   4.532754     0.1011E+02  -1.29424   3.23560
    3430.00   4.535294     0.9928E+01  -1.30221   3.25552
    3450.00   4.537819     0.9732E+01  -1.31088   3.27720
    3470.00   4.540329     0.9529E+01  -1.32005   3.30013
    3490.00   4.542826     0.9338E+01  -1.32885   3.32213
    3510.00   4.545307     0.9155E+01  -1.33744   3.34361
    3530.00   4.547775     0.8956E+01  -1.34699   3.36748
    3550.00   4.550228     0.8786E+01  -1.35530   3.38826
    3570.00   4.552669     0.8606E+01  -1.36429   3.41073
    3590.00   4.555095     0.8435E+01  -1.37299   3.43248
    3610.00   4.557508     0.8280E+01  -1.38108   3.45269
    3630.00   4.559907     0.8113E+01  -1.38991   3.47477
    3650.00   4.562293     0.7938E+01  -1.39936   3.49839
    3670.00   4.564666     0.7778E+01  -1.40824   3.52061
    3690.00   4.567026     0.7604E+01  -1.41807   3.54517
    3710.00   4.569374     0.7447E+01  -1.42710   3.56775
    3730.00   4.571709     0.7323E+01  -1.43440   3.58601
    3750.00   4.574031     0.7152E+01  -1.44466   3.61164
    3770.00   4.576342     0.7042E+01  -1.45141   3.62852
    3790.00   4.578639     0.6901E+01  -1.46015   3.65037
    3810.00   4.580925     0.6775E+01  -1.46819   3.67047
    3830.00   4.583199     0.6654E+01  -1.47602   3.69004
    3850.00   4.585461     0.6529E+01  -1.48423   3.71056
    3870.00   4.587711     0.6388E+01  -1.49374   3.73435
    3890.00   4.589950     0.6273E+01  -1.50159   3.75398
    3910.00   4.592176     0.6161E+01  -1.50946   3.77366
    3930.00   4.594393     0.6044E+01  -1.51773   3.79433
    3950.00   4.596597     0.5913E+01  -1.52725   3.81811
    3970.00   4.598790     0.5809E+01  -1.53498   3.83746
    3990.00   4.600973     0.5681E+01  -1.54470   3.86174
    4010.00   4.603145     0.5589E+01  -1.55179   3.87948
    4030.00   4.605305     0.5495E+01  -1.55910   3.89774
    4050.00   4.607455     0.5384E+01  -1.56800   3.91999
    4070.00   4.609594     0.5291E+01  -1.57552   3.93880
    4090.00   4.611723     0.5196E+01  -1.58340   3.95850
    4110.00   4.613842     0.5108E+01  -1.59088   3.97719
    4130.00   4.615950     0.5023E+01  -1.59809   3.99521
    4150.00   4.618048     0.4932E+01  -1.60605   4.01512
    4170.00   4.620136     0.4847E+01  -1.61357   4.03393
    4190.00   4.622214     0.4761E+01  -1.62143   4.05358
    4210.00   4.624282     0.4673E+01  -1.62949   4.07374
    4230.00   4.626340     0.4611E+01  -1.63526   4.08814
    4250.00   4.628389     0.4525E+01  -1.64351   4.10876
    4270.00   4.630428     0.4456E+01  -1.65016   4.12541
    4290.00   4.632457     0.4262E+01  -1.66944   4.17359
    4310.00   4.634478     0.4064E+01  -1.69018   4.22545
    4330.00   4.636488     0.4046E+01  -1.69205   4.23013
    4350.00   4.638489     0.3883E+01  -1.70987   4.27468
    4370.00   4.640481     0.3783E+01  -1.72130   4.30326
    4390.00   4.642465     0.3705E+01  -1.73026   4.32565
    4410.00   4.644439     0.3572E+01  -1.74618   4.36544
    4430.00   4.646404     0.3519E+01  -1.75272   4.38181
    4450.00   4.648360     0.3456E+01  -1.76055   4.40139
    4470.00   4.650308     0.3345E+01  -1.77463   4.43657
    4490.00   4.652246     0.3333E+01  -1.77623   4.44058
    4510.00   4.654177     0.3254E+01  -1.78666   4.46665
    4530.00   4.656098     0.3176E+01  -1.79727   4.49318
    4550.00   4.658011     0.3154E+01  -1.80017   4.50043
    4570.00   4.659916     0.3114E+01  -1.80575   4.51437
    4590.00   4.661813     0.3024E+01  -1.81848   4.54621
    4610.00   4.663701     0.3020E+01  -1.81907   4.54767
    4630.00   4.665581     0.2963E+01  -1.82734   4.56834
    4650.00   4.667453     0.2930E+01  -1.83219   4.58048
    4670.00   4.669317     0.2908E+01  -1.83554   4.58886
    4690.00   4.671173     0.2854E+01  -1.84362   4.60904
    4710.00   4.673021     0.2807E+01  -1.85089   4.62723
    4730.00   4.674861     0.2802E+01  -1.85165   4.62913
    4750.00   4.676694     0.2743E+01  -1.86088   4.65220
    4770.00   4.678518     0.2707E+01  -1.86668   4.66670
    4790.00   4.680336     0.2679E+01  -1.87118   4.67795
    4810.00   4.682145     0.2618E+01  -1.88114   4.70285
    4830.00   4.683947     0.2617E+01  -1.88130   4.70325
    4850.00   4.685741     0.2570E+01  -1.88907   4.72269
    4870.00   4.687529     0.2523E+01  -1.89711   4.74277
    4890.00   4.689309     0.2489E+01  -1.90302   4.75756
    4910.00   4.691082     0.2458E+01  -1.90849   4.77122
    4930.00   4.692847     0.2420E+01  -1.91520   4.78799
    4950.00   4.694605     0.2381E+01  -1.92232   4.80579
    4970.00   4.696356     0.2361E+01  -1.92595   4.81487
    4990.00   4.698101     0.2326E+01  -1.93248   4.83120
    5010.00   4.699838     0.2298E+01  -1.93770   4.84426
    5030.00   4.701568     0.2268E+01  -1.94348   4.85870
    5050.00   4.703291     0.2223E+01  -1.95216   4.88039
    5070.00   4.705008     0.2203E+01  -1.95604   4.89010
    5090.00   4.706717     0.2175E+01  -1.96163   4.90407
    5110.00   4.708421     0.2138E+01  -1.96907   4.92269
    5130.00   4.710117     0.2121E+01  -1.97253   4.93133
    5150.00   4.711807     0.2085E+01  -1.97994   4.94985
    5170.00   4.713490     0.2073E+01  -1.98252   4.95631
    5190.00   4.715167     0.2037E+01  -1.99013   4.97532
    5210.00   4.716838     0.2014E+01  -1.99498   4.98744
    5230.00   4.718502     0.1981E+01  -2.00218   5.00546
    5250.00   4.720160     0.1963E+01  -2.00606   5.01516
    5270.00   4.721810     0.1951E+01  -2.00888   5.02219
    5290.00   4.723455     0.1910E+01  -2.01810   5.04526
    5310.00   4.725095     0.1885E+01  -2.02370   5.05924
    5330.00   4.726727     0.1868E+01  -2.02782   5.06955
    5350.00   4.728354     0.1845E+01  -2.03311   5.08278
    5370.00   4.729974     0.1824E+01  -2.03809   5.09523
    5390.00   4.731589     0.1803E+01  -2.04313   5.10782
    5410.00   4.733197     0.1781E+01  -2.04838   5.12096
    5430.00   4.734800     0.1751E+01  -2.05590   5.13975
    5450.00   4.736397     0.1740E+01  -2.05862   5.14655
    5470.00   4.737988     0.1712E+01  -2.06554   5.16386
    5490.00   4.739573     0.1694E+01  -2.07019   5.17549
    5510.00   4.741152     0.1672E+01  -2.07597   5.18994
    5530.00   4.742725     0.1670E+01  -2.07647   5.19118
    5550.00   4.744293     0.1630E+01  -2.08681   5.21702
    5570.00   4.745855     0.1623E+01  -2.08867   5.22168
    5590.00   4.747412     0.1597E+01  -2.09567   5.23916
    5610.00   4.748963     0.1584E+01  -2.09935   5.24838
    5630.00   4.750508     0.1557E+01  -2.10680   5.26700
    5650.00   4.752048     0.1547E+01  -2.10965   5.27413
    5670.00   4.753583     0.1528E+01  -2.11495   5.28738
    5690.00   4.755112     0.1503E+01  -2.12224   5.30559
    5710.00   4.756636     0.1494E+01  -2.12474   5.31185
    5730.00   4.758155     0.1475E+01  -2.13021   5.32553
    5750.00   4.759668     0.1458E+01  -2.13541   5.33852
    5770.00   4.761176     0.1439E+01  -2.14110   5.35275
    5790.00   4.762679     0.1427E+01  -2.14465   5.36163
    5810.00   4.764176     0.1406E+01  -2.15113   5.37783
    5830.00   4.765669     0.1391E+01  -2.15587   5.38968
    5850.00   4.767156     0.1375E+01  -2.16079   5.40198
    5870.00   4.768638     0.1355E+01  -2.16726   5.41816
    5890.00   4.770115     0.1340E+01  -2.17196   5.42990
    5910.00   4.771587     0.1326E+01  -2.17669   5.44172
    5930.00   4.773055     0.1311E+01  -2.18136   5.45339
    5950.00   4.774517     0.1293E+01  -2.18733   5.46832
    5970.00   4.775974     0.1282E+01  -2.19129   5.47821
    5990.00   4.777427     0.1267E+01  -2.19639   5.49098
    6010.00   4.778874     0.1252E+01  -2.20148   5.50369
    6030.00   4.780317     0.1237E+01  -2.20661   5.51653
    6050.00   4.781755     0.1220E+01  -2.21266   5.53164
    6070.00   4.783189     0.1207E+01  -2.21754   5.54384
    6090.00   4.784617     0.1192E+01  -2.22268   5.55670
    6110.00   4.786041     0.1177E+01  -2.22819   5.57048
    6130.00   4.787460     0.1166E+01  -2.23250   5.58124
    6150.00   4.788875     0.1153E+01  -2.23720   5.59300
    6170.00   4.790285     0.1141E+01  -2.24163   5.60408
    6190.00   4.791691     0.1128E+01  -2.24682   5.61705
    6210.00   4.793092     0.1116E+01  -2.25144   5.62860
    6230.00   4.794488     0.1101E+01  -2.25717   5.64292
    6250.00   4.795880     0.1087E+01  -2.26277   5.65693
    6270.00   4.797267     0.1075E+01  -2.26772   5.66931
    6290.00   4.798651     0.1064E+01  -2.27233   5.68084
    6310.00   4.800029     0.1051E+01  -2.27756   5.69390
    6330.00   4.801404     0.1041E+01  -2.28154   5.70384
    6350.00   4.802773     0.1028E+01  -2.28702   5.71755
    6370.00   4.804139     0.1019E+01  -2.29107   5.72768
    6390.00   4.805501     0.1005E+01  -2.29672   5.74180
    6420.00   4.807535     0.9889E+00  -2.30395   5.75986
    6460.00   4.810232     0.9661E+00  -2.31406   5.78516
    6500.00   4.812913     0.9448E+00  -2.32373   5.80932
    6540.00   4.815578     0.9238E+00  -2.33349   5.83373
    6580.00   4.818226     0.9041E+00  -2.34285   5.85713
    6620.00   4.820858     0.8838E+00  -2.35274   5.88186
    6660.00   4.823474     0.8646E+00  -2.36228   5.90569
    6700.00   4.826075     0.8459E+00  -2.37175   5.92939
    6740.00   4.828660     0.8271E+00  -2.38153   5.95382
    6780.00   4.831230     0.8093E+00  -2.39095   5.97738
    6820.00   4.833784     0.7918E+00  -2.40048   6.00120
    6860.00   4.836324     0.7752E+00  -2.40970   6.02425
    6900.00   4.838849     0.7584E+00  -2.41921   6.04804
    6940.00   4.841359     0.7423E+00  -2.42852   6.07129
    6980.00   4.843855     0.7267E+00  -2.43776   6.09440
    7020.00   4.846337     0.7110E+00  -2.44721   6.11802
    7060.00   4.848804     0.6964E+00  -2.45623   6.14057
    7100.00   4.851258     0.6818E+00  -2.46544   6.16361
    7140.00   4.853698     0.6677E+00  -2.47450   6.18626
    7180.00   4.856124     0.6538E+00  -2.48366   6.20916
    7220.00   4.858537     0.6404E+00  -2.49266   6.23166
    7260.00   4.860937     0.6271E+00  -2.50174   6.25435
    7300.00   4.863323     0.6144E+00  -2.51065   6.27662
    7340.00   4.865696     0.6017E+00  -2.51968   6.29919
    7380.00   4.868056     0.5897E+00  -2.52845   6.32114
    7420.00   4.870404     0.5774E+00  -2.53759   6.34398
    7460.00   4.872739     0.5658E+00  -2.54645   6.36613
    7500.00   4.875061     0.5546E+00  -2.55509   6.38772
    7540.00   4.877371     0.5435E+00  -2.56389   6.40973
    7580.00   4.879669     0.5331E+00  -2.57226   6.43066
    7620.00   4.881955     0.5226E+00  -2.58090   6.45225
    7660.00   4.884229     0.5124E+00  -2.58949   6.47372
    7700.00   4.886491     0.5023E+00  -2.59812   6.49530
    7740.00   4.888741     0.4926E+00  -2.60656   6.51641
    7780.00   4.890980     0.4831E+00  -2.61501   6.53751
    7820.00   4.893207     0.4738E+00  -2.62346   6.55866
    7860.00   4.895422     0.4648E+00  -2.63184   6.57959
    7900.00   4.897627     0.4559E+00  -2.64020   6.60050
    7940.00   4.899820     0.4473E+00  -2.64852   6.62130
    7980.00   4.902003     0.4389E+00  -2.65676   6.64191
    8020.00   4.904174     0.4305E+00  -2.66516   6.66290
    8060.00   4.906335     0.4224E+00  -2.67336   6.68339
    8100.00   4.908485     0.4146E+00  -2.68141   6.70351
    8140.00   4.910625     0.4069E+00  -2.68962   6.72404
    8180.00   4.912753     0.3995E+00  -2.69760   6.74399
    8220.00   4.914872     0.3922E+00  -2.70562   6.76405
    8260.00   4.916980     0.3850E+00  -2.71366   6.78416
    8300.00   4.919078     0.3780E+00  -2.72163   6.80407
    8340.00   4.921166     0.3710E+00  -2.72970   6.82425
    8380.00   4.923244     0.3643E+00  -2.73761   6.84404
    8420.00   4.925312     0.3579E+00  -2.74535   6.86337
    8460.00   4.927370     0.3514E+00  -2.75323   6.88308
    8500.00   4.929419     0.3452E+00  -2.76101   6.90253
    8540.00   4.931458     0.3391E+00  -2.76875   6.92188
    8580.00   4.933487     0.3331E+00  -2.77645   6.94113
    8620.00   4.935507     0.3273E+00  -2.78414   6.96034
    8660.00   4.937518     0.3216E+00  -2.79176   6.97939
    8700.00   4.939519     0.3160E+00  -2.79939   6.99849
    8740.00   4.941511     0.3105E+00  -2.80699   7.01748
    8780.00   4.943495     0.3052E+00  -2.81457   7.03642
    8820.00   4.945469     0.2999E+00  -2.82218   7.05545
    8860.00   4.947433     0.2947E+00  -2.82965   7.07412
    8900.00   4.949390     0.2897E+00  -2.83716   7.09289
    8940.00   4.951338     0.2848E+00  -2.84450   7.11126
    8980.00   4.953277     0.2799E+00  -2.85207   7.13017
    9020.00   4.955207     0.2753E+00  -2.85927   7.14819
    9060.00   4.957129     0.2707E+00  -2.86656   7.16641
    9100.00   4.959042     0.2660E+00  -2.87413   7.18534
    9140.00   4.960946     0.2617E+00  -2.88125   7.20312
    9180.00   4.962843     0.2574E+00  -2.88848   7.22120
    9220.00   4.964731     0.2532E+00  -2.89559   7.23897
    9260.00   4.966611     0.2491E+00  -2.90280   7.25700
    9300.00   4.968483     0.2450E+00  -2.90994   7.27486
    9340.00   4.970347     0.2410E+00  -2.91709   7.29273
    9380.00   4.972203     0.2371E+00  -2.92416   7.31041
    9420.00   4.974051     0.2333E+00  -2.93124   7.32809
    9460.00   4.975891     0.2295E+00  -2.93832   7.34580
    9500.00   4.977724     0.2258E+00  -2.94532   7.36331
    9540.00   4.979548     0.2222E+00  -2.95229   7.38074
    9580.00   4.981365     0.2187E+00  -2.95923   7.39809
    9620.00   4.983175     0.2152E+00  -2.96618   7.41545
    9660.00   4.984977     0.2119E+00  -2.97306   7.43264
    9700.00   4.986772     0.2085E+00  -2.97992   7.44980
    9740.00   4.988559     0.2051E+00  -2.98702   7.46755
    9780.00   4.990339     0.2020E+00  -2.99368   7.48419
    9820.00   4.992111     0.1989E+00  -3.00040   7.50100
    9860.00   4.993877     0.1958E+00  -3.00717   7.51791
    9900.00   4.995635     0.1928E+00  -3.01388   7.53471
    9940.00   4.997386     0.1899E+00  -3.02064   7.55161
    9980.00   4.999130     0.1870E+00  -3.02732   7.56831
   10020.00   5.000868     0.1841E+00  -3.03398   7.58496
   20000.00   5.301030     0.1256E-01  -4.20019  10.50048
   40000.00   5.602060     0.8133E-03  -5.38881  13.47202
   60000.00   5.778151     0.1622E-03  -6.08907  15.22268
   80000.00   5.903090     0.5149E-04  -6.58736  16.46840
  100000.00   6.000000     0.2112E-04  -6.97449  17.43622
  120000.00   6.079181     0.1018E-04  -7.29114  18.22784
  140000.00   6.146128     0.5496E-05  -7.55905  18.89763
  160000.00   6.204120     0.3220E-05  -7.79124  19.47811
