age =   15.0    [Fe/H] =   -0.25

wavele(nm) log wave(A)   Hlam       log(Hlam/Hlam(V))  Hlam(mag(V)) 
      89.50   2.951823     0.9124E-13 -15.18638  37.96596
      90.50   2.956649     0.1887E-12 -14.87074  37.17686
      91.50   2.961421     0.2953E-12 -14.67631  36.69078
      92.50   2.966142     0.2775E-10 -12.70334  31.75834
      93.50   2.970812     0.3842E-10 -12.56201  31.40502
      94.50   2.975432     0.5545E-10 -12.40270  31.00675
      95.50   2.980003     0.8334E-10 -12.22573  30.56433
      96.50   2.984527     0.1215E-09 -12.06202  30.15505
      97.50   2.989005     0.1607E-09 -11.94045  29.85113
      98.50   2.993436     0.2283E-09 -11.78805  29.47013
      99.50   2.997823     0.3120E-09 -11.65244  29.13110
     100.50   3.002166     0.4580E-09 -11.48574  28.71434
     101.50   3.006466     0.6192E-09 -11.35473  28.38682
     102.50   3.010724     0.7003E-09 -11.30125  28.25313
     103.50   3.014940     0.1163E-08 -11.08089  27.70222
     104.50   3.019116     0.1609E-08 -10.94009  27.35023
     105.50   3.023252     0.2033E-08 -10.83834  27.09585
     106.50   3.027350     0.2756E-08 -10.70635  26.76588
     107.50   3.031409     0.3708E-08 -10.57744  26.44360
     108.50   3.035430     0.4999E-08 -10.44766  26.11914
     109.50   3.039414     0.6250E-08 -10.35069  25.87673
     110.50   3.043362     0.3252E-07  -9.63442  24.08605
     111.50   3.047275     0.5752E-07  -9.38675  23.46688
     112.50   3.051152     0.8721E-07  -9.20602  23.01506
     113.50   3.054996     0.1332E-06  -9.02193  22.55482
     114.50   3.058805     0.1772E-06  -8.89820  22.24551
     115.50   3.062582     0.2057E-06  -8.83328  22.08321
     116.50   3.066326     0.2731E-06  -8.71027  21.77568
     117.50   3.070038     0.3491E-06  -8.60358  21.50896
     118.50   3.073718     0.3672E-06  -8.58162  21.45405
     119.50   3.077368     0.2870E-06  -8.68863  21.72157
     120.50   3.080987     0.2682E-06  -8.71805  21.79512
     121.50   3.084576     0.5821E-07  -9.38156  23.45390
     122.50   3.088136     0.3580E-06  -8.59269  21.48172
     123.50   3.091667     0.8635E-06  -8.21031  20.52576
     124.50   3.095169     0.1365E-05  -8.01131  20.02828
     125.50   3.098644     0.1778E-05  -7.89663  19.74158
     126.50   3.102091     0.1977E-05  -7.85065  19.62662
     127.50   3.105510     0.2515E-05  -7.74599  19.36498
     128.50   3.108903     0.2997E-05  -7.66992  19.17479
     129.50   3.112270     0.3635E-05  -7.58610  18.96526
     130.50   3.115611     0.3928E-05  -7.55234  18.88086
     131.50   3.118926     0.4936E-05  -7.45315  18.63288
     132.50   3.122216     0.5278E-05  -7.42413  18.56033
     133.50   3.125481     0.5887E-05  -7.37664  18.44160
     134.50   3.128722     0.6961E-05  -7.30391  18.25977
     135.50   3.131939     0.8042E-05  -7.24119  18.10297
     136.50   3.135133     0.8731E-05  -7.20548  18.01369
     137.50   3.138303     0.9431E-05  -7.17201  17.93003
     138.50   3.141450     0.1036E-04  -7.13112  17.82780
     139.50   3.144574     0.1173E-04  -7.07723  17.69307
     140.50   3.147676     0.1407E-04  -6.99813  17.49532
     141.50   3.150756     0.1604E-04  -6.94133  17.35333
     142.50   3.153815     0.1829E-04  -6.88443  17.21108
     143.50   3.156852     0.2156E-04  -6.81291  17.03227
     144.20   3.158965     0.2804E-04  -6.69875  16.74688
     144.70   3.160469     0.2507E-04  -6.74745  16.86863
     145.50   3.162863     0.2960E-04  -6.67528  16.68821
     146.50   3.165838     0.3733E-04  -6.57455  16.43638
     147.50   3.168792     0.4253E-04  -6.51792  16.29479
     148.50   3.171726     0.4577E-04  -6.48597  16.21493
     149.50   3.174641     0.6003E-04  -6.36822  15.92055
     150.50   3.177536     0.7284E-04  -6.28418  15.71045
     151.20   3.179552     0.5559E-04  -6.40154  16.00386
     151.70   3.180986     0.7050E-04  -6.29838  15.74595
     152.50   3.183270     0.1561E-03  -5.95329  14.88322
     153.50   3.186108     0.2477E-03  -5.75260  14.38150
     154.50   3.188928     0.2066E-03  -5.83151  14.57878
     155.50   3.191730     0.3270E-03  -5.63208  14.08020
     156.50   3.194514     0.3099E-03  -5.65541  14.13851
     157.50   3.197281     0.5492E-03  -5.40681  13.51704
     158.50   3.200029     0.6629E-03  -5.32509  13.31274
     159.50   3.202761     0.7725E-03  -5.25869  13.14673
     160.50   3.205475     0.8272E-03  -5.22894  13.07235
     161.50   3.208173     0.9279E-03  -5.17905  12.94762
     162.50   3.210853     0.1028E-02  -5.13449  12.83622
     163.50   3.213518     0.1212E-02  -5.06309  12.65773
     164.50   3.216166     0.1692E-02  -4.91813  12.29532
     165.50   3.218798     0.1106E-02  -5.10287  12.75718
     166.50   3.221414     0.1947E-02  -4.85723  12.14308
     167.20   3.223236     0.1402E-02  -4.99976  12.49939
     167.70   3.224533     0.5086E-02  -4.44020  11.10051
     168.50   3.226600     0.5498E-02  -4.40633  11.01581
     169.50   3.229170     0.6581E-02  -4.32825  10.82063
     170.50   3.231725     0.7468E-02  -4.27337  10.68343
     171.50   3.234264     0.8553E-02  -4.21446  10.53614
     172.50   3.236789     0.1071E-01  -4.11663  10.29157
     173.50   3.239300     0.1385E-01  -4.00508  10.01271
     174.50   3.241796     0.1833E-01  -3.88342   9.70854
     175.50   3.244277     0.2677E-01  -3.71899   9.29748
     176.50   3.246745     0.2179E-01  -3.80840   9.52099
     177.50   3.249198     0.2613E-01  -3.72943   9.32358
     178.50   3.251638     0.3503E-01  -3.60209   9.00521
     179.50   3.254065     0.4785E-01  -3.46665   8.66664
     180.50   3.256477     0.4974E-01  -3.44987   8.62468
     181.50   3.258877     0.4207E-01  -3.52255   8.80638
     182.50   3.261263     0.5404E-01  -3.41386   8.53464
     183.50   3.263636     0.5570E-01  -3.40068   8.50171
     184.50   3.265996     0.3377E-01  -3.61801   9.04502
     185.50   3.268344     0.6417E-01  -3.33926   8.34814
     186.50   3.270679     0.8288E-01  -3.22810   8.07025
     187.50   3.273001     0.8607E-01  -3.21172   8.02930
     188.50   3.275311     0.9239E-01  -3.18092   7.95231
     189.50   3.277609     0.1246E+00  -3.05113   7.62782
     190.50   3.279895     0.1176E+00  -3.07608   7.69019
     191.50   3.282169     0.1334E+00  -3.02131   7.55327
     192.50   3.284431     0.1165E+00  -3.08016   7.70040
     193.50   3.286681     0.6547E-01  -3.33050   8.32624
     194.50   3.288920     0.1671E+00  -2.92352   7.30879
     195.50   3.291147     0.1751E+00  -2.90323   7.25806
     196.70   3.293804     0.2381E+00  -2.76972   6.92429
     197.60   3.295787     0.2040E+00  -2.83686   7.09214
     198.40   3.297542     0.2611E+00  -2.72979   6.82448
     199.50   3.299943     0.2858E+00  -2.69054   6.72636
     200.50   3.302114     0.2654E+00  -2.72259   6.80649
     201.50   3.304275     0.2929E+00  -2.67981   6.69953
     202.50   3.306425     0.2102E+00  -2.82385   7.05964
     203.50   3.308564     0.3285E+00  -2.63000   6.57500
     204.50   3.310693     0.3870E+00  -2.55885   6.39713
     205.50   3.312812     0.3768E+00  -2.57040   6.42599
     206.50   3.314920     0.3660E+00  -2.58310   6.45776
     207.40   3.316809     0.4105E+00  -2.53329   6.33323
     207.80   3.317646     0.1173E+01  -2.07741   5.19353
     208.50   3.319106     0.1549E+01  -1.95649   4.89122
     209.50   3.321184     0.1391E+01  -2.00316   5.00789
     210.50   3.323252     0.1342E+01  -2.01871   5.04679
     211.50   3.325310     0.1630E+01  -1.93427   4.83569
     212.50   3.327359     0.1373E+01  -2.00894   5.02234
     213.50   3.329398     0.1352E+01  -2.01565   5.03912
     214.50   3.331427     0.1847E+01  -1.88002   4.70005
     215.50   3.333447     0.1754E+01  -1.90253   4.75631
     216.50   3.335458     0.1448E+01  -1.98587   4.96467
     217.50   3.337459     0.1453E+01  -1.98426   4.96064
     218.50   3.339452     0.2106E+01  -1.82307   4.55767
     219.50   3.341434     0.2015E+01  -1.84233   4.60582
     220.50   3.343409     0.1985E+01  -1.84880   4.62200
     221.50   3.345374     0.1421E+01  -1.99410   4.98525
     222.50   3.347330     0.1875E+01  -1.87363   4.68407
     223.50   3.349277     0.2689E+01  -1.71698   4.29245
     224.50   3.351216     0.2546E+01  -1.74071   4.35179
     225.50   3.353147     0.1774E+01  -1.89770   4.74424
     226.50   3.355068     0.1519E+01  -1.96513   4.91283
     227.50   3.356982     0.1652E+01  -1.92859   4.82147
     228.50   3.358886     0.2635E+01  -1.72582   4.31455
     229.50   3.360783     0.2028E+01  -1.83952   4.59880
     230.50   3.362671     0.2670E+01  -1.72001   4.30002
     231.50   3.364551     0.2177E+01  -1.80869   4.52174
     232.50   3.366423     0.1820E+01  -1.88658   4.71645
     233.50   3.368287     0.1518E+01  -1.96539   4.91348
     234.50   3.370143     0.9025E+00  -2.19110   5.47775
     235.50   3.371991     0.2098E+01  -1.82472   4.56179
     236.50   3.373831     0.1063E+01  -2.11995   5.29988
     237.50   3.375664     0.1498E+01  -1.97118   4.92796
     238.50   3.377488     0.7791E+00  -2.25496   5.63740
     239.50   3.379306     0.1047E+01  -2.12651   5.31626
     240.50   3.381115     0.1085E+01  -2.11128   5.27819
     241.50   3.382917     0.1334E+01  -2.02137   5.05342
     242.50   3.384712     0.2713E+01  -1.71313   4.28282
     243.50   3.386499     0.2752E+01  -1.70690   4.26725
     244.50   3.388279     0.3447E+01  -1.60907   4.02269
     245.50   3.390052     0.3736E+01  -1.57415   3.93538
     246.50   3.391817     0.2986E+01  -1.67142   4.17854
     247.50   3.393575     0.2512E+01  -1.74662   4.36656
     248.50   3.395326     0.1062E+01  -2.12033   5.30082
     249.50   3.397071     0.1660E+01  -1.92650   4.81625
     250.50   3.398808     0.2915E+01  -1.68191   4.20477
     251.30   3.400192     0.1000E+01  -2.14657   5.36642
     251.80   3.401056     0.6719E+00  -2.31929   5.79823
     252.50   3.402261     0.8224E+00  -2.23146   5.57866
     253.50   3.403978     0.1941E+01  -1.85858   4.64645
     254.50   3.405688     0.2051E+01  -1.83458   4.58646
     255.50   3.407391     0.4637E+01  -1.48028   3.70070
     256.50   3.409087     0.3163E+01  -1.64651   4.11627
     257.50   3.410777     0.4384E+01  -1.50472   3.76181
     258.50   3.412461     0.3738E+01  -1.57389   3.93473
     259.50   3.414137     0.3280E+01  -1.63073   4.07682
     260.50   3.415808     0.2707E+01  -1.71404   4.28511
     261.50   3.417472     0.2374E+01  -1.77113   4.42782
     262.50   3.419129     0.3508E+01  -1.60148   4.00371
     263.50   3.420781     0.7174E+01  -1.29081   3.22704
     264.50   3.422426     0.9861E+01  -1.15265   2.88163
     265.50   3.424065     0.1474E+02  -0.97809   2.44522
     266.50   3.425697     0.8906E+01  -1.19686   2.99215
     267.50   3.427324     0.1015E+02  -1.14006   2.85015
     268.50   3.428944     0.1226E+02  -1.05805   2.64512
     269.50   3.430559     0.8146E+01  -1.23562   3.08906
     270.50   3.432167     0.1057E+02  -1.12254   2.80635
     271.50   3.433770     0.7110E+01  -1.29468   3.23669
     272.50   3.435366     0.4981E+01  -1.44921   3.62303
     273.50   3.436957     0.6963E+01  -1.30377   3.25941
     274.50   3.438542     0.3705E+01  -1.57781   3.94452
     275.50   3.440122     0.5549E+01  -1.40235   3.50588
     276.50   3.441695     0.7747E+01  -1.25745   3.14363
     277.50   3.443263     0.8153E+01  -1.23523   3.08807
     278.50   3.444825     0.4305E+01  -1.51255   3.78138
     279.50   3.446382     0.1719E+01  -1.91125   4.77812
     280.50   3.447933     0.2155E+01  -1.81316   4.53289
     281.50   3.449478     0.6865E+01  -1.30995   3.27488
     282.50   3.451018     0.1050E+02  -1.12536   2.81339
     283.50   3.452553     0.9381E+01  -1.17433   2.93583
     284.50   3.454082     0.5676E+01  -1.39256   3.48139
     285.50   3.455606     0.2688E+01  -1.71720   4.29300
     286.50   3.457125     0.8733E+01  -1.20542   3.01356
     287.50   3.458638     0.1354E+02  -1.01502   2.53755
     288.50   3.460146     0.1239E+02  -1.05365   2.63412
     289.50   3.461648     0.1632E+02  -0.93376   2.33439
     291.00   3.463893     0.2339E+02  -0.77748   1.94370
     293.00   3.466868     0.2112E+02  -0.82178   2.05445
     295.00   3.469822     0.2000E+02  -0.84554   2.11386
     297.00   3.472756     0.2091E+02  -0.82628   2.06570
     299.00   3.475671     0.2194E+02  -0.80525   2.01312
     301.00   3.478566     0.2193E+02  -0.80557   2.01393
     303.00   3.481443     0.2399E+02  -0.76657   1.91642
     305.00   3.484300     0.2514E+02  -0.74623   1.86557
     307.00   3.487138     0.2593E+02  -0.73281   1.83203
     309.00   3.489959     0.2344E+02  -0.77662   1.94156
     311.00   3.492760     0.2820E+02  -0.69639   1.74098
     313.00   3.495544     0.2537E+02  -0.74220   1.85551
     315.00   3.498311     0.2517E+02  -0.74569   1.86423
     317.00   3.501059     0.2884E+02  -0.68652   1.71629
     319.00   3.503791     0.2492E+02  -0.75004   1.87511
     321.00   3.506505     0.2775E+02  -0.70330   1.75824
     323.00   3.509202     0.2377E+02  -0.77047   1.92617
     325.00   3.511883     0.3452E+02  -0.60852   1.52130
     327.00   3.514548     0.4048E+02  -0.53934   1.34836
     329.00   3.517196     0.3962E+02  -0.54866   1.37165
     331.00   3.519828     0.3628E+02  -0.58692   1.46731
     333.00   3.522444     0.3764E+02  -0.57096   1.42739
     335.00   3.525045     0.3626E+02  -0.58714   1.46784
     337.00   3.527630     0.2557E+02  -0.73885   1.84712
     339.00   3.530200     0.3048E+02  -0.66249   1.65622
     341.00   3.532754     0.3191E+02  -0.64266   1.60664
     343.00   3.535294     0.3496E+02  -0.60300   1.50751
     345.00   3.537819     0.3789E+02  -0.56807   1.42017
     347.00   3.540329     0.3970E+02  -0.54777   1.36943
     349.00   3.542825     0.4475E+02  -0.49580   1.23950
     351.00   3.545307     0.4783E+02  -0.46691   1.16727
     353.00   3.547775     0.4274E+02  -0.51577   1.28944
     355.00   3.550228     0.4901E+02  -0.45631   1.14077
     357.00   3.552668     0.3521E+02  -0.59995   1.49988
     359.00   3.555094     0.3618E+02  -0.58808   1.47019
     361.00   3.557507     0.4546E+02  -0.48891   1.22228
     363.00   3.559907     0.4680E+02  -0.47633   1.19082
     364.00   3.561101     0.4803E+02  -0.46503   1.16257
     365.00   3.562293     0.5190E+02  -0.43141   1.07852
     367.00   3.564666     0.5580E+02  -0.39990   0.99975
     369.00   3.567026     0.5001E+02  -0.44749   1.11873
     371.00   3.569374     0.5248E+02  -0.42660   1.06650
     373.00   3.571709     0.3360E+02  -0.62028   1.55069
     375.00   3.574031     0.3870E+02  -0.55884   1.39709
     377.00   3.576341     0.5156E+02  -0.43424   1.08560
     379.00   3.578639     0.5307E+02  -0.42173   1.05432
     381.00   3.580925     0.4967E+02  -0.45050   1.12624
     383.00   3.583199     0.2712E+02  -0.71322   1.78305
     385.00   3.585461     0.3855E+02  -0.56056   1.40140
     387.00   3.587711     0.3767E+02  -0.57054   1.42635
     389.00   3.589950     0.4774E+02  -0.46767   1.16917
     391.00   3.592177     0.5828E+02  -0.38105   0.95262
     393.00   3.594393     0.2778E+02  -0.70283   1.75708
     395.00   3.596597     0.5107E+02  -0.43837   1.09592
     397.00   3.598790     0.3502E+02  -0.60225   1.50563
     399.00   3.600973     0.7665E+02  -0.26208   0.65519
     401.00   3.603144     0.8436E+02  -0.22044   0.55110
     403.00   3.605305     0.8292E+02  -0.22790   0.56976
     405.00   3.607455     0.7964E+02  -0.24543   0.61358
     407.00   3.609594     0.7520E+02  -0.27035   0.67587
     409.00   3.611723     0.9305E+02  -0.17785   0.44461
     411.00   3.613842     0.8741E+02  -0.20501   0.51253
     413.00   3.615950     0.8538E+02  -0.21523   0.53808
     415.00   3.618048     0.8316E+02  -0.22663   0.56658
     417.00   3.620136     0.8501E+02  -0.21707   0.54268
     419.00   3.622214     0.8235E+02  -0.23089   0.57723
     421.00   3.624282     0.8306E+02  -0.22716   0.56789
     423.00   3.626340     0.7832E+02  -0.25268   0.63170
     425.00   3.628389     0.8302E+02  -0.22737   0.56843
     427.00   3.630428     0.7801E+02  -0.25444   0.63609
     429.00   3.632457     0.7256E+02  -0.28584   0.71460
     431.00   3.634477     0.6204E+02  -0.35388   0.88469
     433.00   3.636488     0.9370E+02  -0.17483   0.43707
     435.00   3.638489     0.9301E+02  -0.17804   0.44511
     437.00   3.640481     0.1004E+03  -0.14485   0.36214
     439.00   3.642465     0.8926E+02  -0.19592   0.48980
     441.00   3.644439     0.9569E+02  -0.16570   0.41424
     443.00   3.646404     0.1047E+03  -0.12660   0.31649
     445.00   3.648360     0.1053E+03  -0.12427   0.31069
     447.00   3.650307     0.1128E+03  -0.09444   0.23609
     449.00   3.652246     0.1162E+03  -0.08152   0.20381
     451.00   3.654176     0.1312E+03  -0.02847   0.07118
     453.00   3.656098     0.1156E+03  -0.08374   0.20935
     455.00   3.658011     0.1216E+03  -0.06174   0.15435
     457.00   3.659916     0.1312E+03  -0.02854   0.07134
     459.00   3.661813     0.1235E+03  -0.05489   0.13722
     461.00   3.663701     0.1278E+03  -0.04005   0.10013
     463.00   3.665581     0.1252E+03  -0.04893   0.12231
     465.00   3.667453     0.1266E+03  -0.04413   0.11032
     467.00   3.669317     0.1321E+03  -0.02572   0.06431
     469.00   3.671173     0.1298E+03  -0.03329   0.08322
     471.00   3.673021     0.1271E+03  -0.04258   0.10645
     473.00   3.674861     0.1308E+03  -0.02987   0.07468
     475.00   3.676694     0.1338E+03  -0.02011   0.05028
     477.00   3.678518     0.1307E+03  -0.03019   0.07548
     479.00   3.680336     0.1318E+03  -0.02650   0.06624
     481.00   3.682145     0.1327E+03  -0.02373   0.05931
     483.00   3.683947     0.1363E+03  -0.01210   0.03025
     485.00   3.685742     0.1311E+03  -0.02890   0.07225
     487.00   3.687529     0.1211E+03  -0.06359   0.15897
     489.00   3.689309     0.1331E+03  -0.02230   0.05575
     491.00   3.691082     0.1341E+03  -0.01916   0.04789
     493.00   3.692847     0.1318E+03  -0.02655   0.06638
     495.00   3.694605     0.1366E+03  -0.01119   0.02797
     497.00   3.696356     0.1323E+03  -0.02494   0.06236
     499.00   3.698101     0.1237E+03  -0.05433   0.13582
     501.00   3.699838     0.1171E+03  -0.07819   0.19548
     503.00   3.701568     0.1248E+03  -0.05026   0.12566
     505.00   3.703291     0.1245E+03  -0.05122   0.12806
     507.00   3.705008     0.1298E+03  -0.03323   0.08306
     509.00   3.706718     0.1236E+03  -0.05469   0.13672
     511.00   3.708421     0.1263E+03  -0.04509   0.11274
     513.00   3.710117     0.1230E+03  -0.05660   0.14150
     515.00   3.711807     0.1186E+03  -0.07234   0.18085
     517.00   3.713490     0.1071E+03  -0.11693   0.29232
     519.00   3.715167     0.1116E+03  -0.09883   0.24709
     521.00   3.716838     0.1210E+03  -0.06382   0.15954
     523.00   3.718502     0.1323E+03  -0.02511   0.06277
     525.00   3.720159     0.1381E+03  -0.00652   0.01631
     527.00   3.721811     0.1219E+03  -0.06070   0.15174
     529.00   3.723456     0.1407E+03   0.00174  -0.00435
     531.00   3.725095     0.1489E+03   0.02633  -0.06582
     533.00   3.726727     0.1322E+03  -0.02543   0.06357
     535.00   3.728354     0.1448E+03   0.01427  -0.03567
     537.00   3.729974     0.1433E+03   0.00969  -0.02422
     539.00   3.731589     0.1409E+03   0.00234  -0.00585
     541.00   3.733197     0.1387E+03  -0.00454   0.01134
     543.00   3.734800     0.1408E+03   0.00193  -0.00481
     545.00   3.736397     0.1432E+03   0.00951  -0.02377
     547.00   3.737987     0.1405E+03   0.00101  -0.00252
     549.00   3.739572     0.1422E+03   0.00627  -0.01566
     551.00   3.741152     0.1401E+03   0.00000   0.00000
     553.00   3.742725     0.1453E+03   0.01557  -0.03892
     555.00   3.744293     0.1478E+03   0.02302  -0.05755
     557.00   3.745855     0.1443E+03   0.01269  -0.03172
     559.00   3.747412     0.1408E+03   0.00208  -0.00521
     561.00   3.748963     0.1451E+03   0.01501  -0.03751
     563.00   3.750508     0.1451E+03   0.01496  -0.03740
     565.00   3.752048     0.1475E+03   0.02221  -0.05552
     567.00   3.753583     0.1442E+03   0.01239  -0.03097
     569.00   3.755112     0.1484E+03   0.02493  -0.06234
     571.00   3.756636     0.1440E+03   0.01186  -0.02964
     573.00   3.758155     0.1550E+03   0.04375  -0.10938
     575.00   3.759668     0.1508E+03   0.03190  -0.07976
     577.00   3.761176     0.1524E+03   0.03641  -0.09102
     579.00   3.762679     0.1475E+03   0.02211  -0.05528
     581.00   3.764176     0.1526E+03   0.03703  -0.09258
     583.00   3.765669     0.1556E+03   0.04544  -0.11359
     585.00   3.767156     0.1502E+03   0.03001  -0.07503
     587.00   3.768638     0.1494E+03   0.02780  -0.06950
     589.00   3.770115     0.1329E+03  -0.02315   0.05787
     591.00   3.771587     0.1467E+03   0.01973  -0.04933
     593.00   3.773055     0.1483E+03   0.02443  -0.06108
     595.00   3.774517     0.1489E+03   0.02626  -0.06565
     597.00   3.775974     0.1516E+03   0.03402  -0.08505
     599.00   3.777427     0.1500E+03   0.02959  -0.07397
     601.00   3.778874     0.1485E+03   0.02502  -0.06255
     603.00   3.780317     0.1520E+03   0.03525  -0.08811
     605.00   3.781755     0.1550E+03   0.04370  -0.10925
     607.00   3.783189     0.1543E+03   0.04191  -0.10477
     609.00   3.784617     0.1503E+03   0.03038  -0.07596
     611.00   3.786041     0.1510E+03   0.03255  -0.08138
     613.00   3.787461     0.1439E+03   0.01144  -0.02860
     615.00   3.788875     0.1473E+03   0.02158  -0.05396
     617.00   3.790285     0.1382E+03  -0.00614   0.01534
     619.00   3.791691     0.1454E+03   0.01595  -0.03988
     621.00   3.793092     0.1441E+03   0.01208  -0.03021
     623.00   3.794488     0.1401E+03  -0.00007   0.00016
     625.00   3.795880     0.1366E+03  -0.01108   0.02771
     627.00   3.797267     0.1430E+03   0.00881  -0.02202
     629.00   3.798651     0.1460E+03   0.01774  -0.04436
     631.00   3.800029     0.1437E+03   0.01080  -0.02699
     633.00   3.801404     0.1463E+03   0.01868  -0.04669
     635.00   3.802774     0.1478E+03   0.02316  -0.05790
     637.00   3.804139     0.1478E+03   0.02311  -0.05776
     639.00   3.805501     0.1498E+03   0.02906  -0.07266
     641.00   3.806858     0.1472E+03   0.02137  -0.05343
     643.00   3.808211     0.1487E+03   0.02569  -0.06422
     645.00   3.809560     0.1483E+03   0.02458  -0.06144
     647.00   3.810904     0.1481E+03   0.02394  -0.05986
     649.00   3.812245     0.1457E+03   0.01701  -0.04253
     651.00   3.813581     0.1507E+03   0.03146  -0.07865
     653.00   3.814913     0.1516E+03   0.03425  -0.08563
     655.00   3.816241     0.1479E+03   0.02330  -0.05824
     657.00   3.817565     0.1398E+03  -0.00093   0.00232
     659.00   3.818885     0.1476E+03   0.02252  -0.05630
     661.00   3.820201     0.1489E+03   0.02644  -0.06609
     663.00   3.821513     0.1471E+03   0.02115  -0.05289
     665.00   3.822822     0.1456E+03   0.01645  -0.04113
     667.00   3.824126     0.1420E+03   0.00585  -0.01462
     669.00   3.825426     0.1432E+03   0.00951  -0.02377
     671.00   3.826723     0.1377E+03  -0.00758   0.01895
     673.00   3.828015     0.1403E+03   0.00044  -0.00110
     675.00   3.829304     0.1380E+03  -0.00661   0.01653
     677.00   3.830589     0.1388E+03  -0.00402   0.01005
     679.00   3.831870     0.1379E+03  -0.00700   0.01750
     681.00   3.833147     0.1386E+03  -0.00475   0.01188
     683.00   3.834421     0.1406E+03   0.00154  -0.00384
     685.00   3.835690     0.1380E+03  -0.00675   0.01688
     687.00   3.836957     0.1402E+03   0.00024  -0.00060
     689.00   3.838219     0.1430E+03   0.00865  -0.02162
     691.00   3.839478     0.1440E+03   0.01182  -0.02956
     693.00   3.840733     0.1438E+03   0.01108  -0.02770
     695.00   3.841985     0.1441E+03   0.01216  -0.03041
     697.00   3.843233     0.1468E+03   0.02010  -0.05024
     699.00   3.844477     0.1471E+03   0.02091  -0.05229
     701.00   3.845718     0.1462E+03   0.01836  -0.04589
     703.00   3.846955     0.1473E+03   0.02155  -0.05387
     705.00   3.848189     0.1447E+03   0.01379  -0.03449
     707.00   3.849419     0.1382E+03  -0.00616   0.01541
     709.00   3.850646     0.1324E+03  -0.02481   0.06204
     711.00   3.851870     0.1285E+03  -0.03766   0.09414
     713.00   3.853090     0.1253E+03  -0.04872   0.12179
     715.00   3.854306     0.1249E+03  -0.04990   0.12475
     717.00   3.855519     0.1269E+03  -0.04311   0.10776
     719.00   3.856729     0.1249E+03  -0.04987   0.12469
     721.00   3.857935     0.1284E+03  -0.03812   0.09530
     723.00   3.859138     0.1322E+03  -0.02540   0.06350
     725.00   3.860338     0.1339E+03  -0.01983   0.04957
     727.00   3.861534     0.1357E+03  -0.01391   0.03477
     729.00   3.862728     0.1360E+03  -0.01290   0.03225
     731.00   3.863917     0.1414E+03   0.00383  -0.00957
     733.00   3.865104     0.1415E+03   0.00432  -0.01079
     735.00   3.866287     0.1445E+03   0.01332  -0.03330
     737.00   3.867467     0.1483E+03   0.02472  -0.06179
     739.00   3.868644     0.1459E+03   0.01753  -0.04382
     741.00   3.869818     0.1462E+03   0.01824  -0.04560
     743.00   3.870989     0.1495E+03   0.02797  -0.06992
     745.00   3.872156     0.1494E+03   0.02766  -0.06914
     747.00   3.873321     0.1518E+03   0.03466  -0.08665
     749.00   3.874482     0.1511E+03   0.03267  -0.08167
     751.00   3.875640     0.1519E+03   0.03498  -0.08746
     753.00   3.876795     0.1534E+03   0.03930  -0.09824
     755.00   3.877947     0.1542E+03   0.04139  -0.10346
     757.00   3.879096     0.1534E+03   0.03928  -0.09820
     759.00   3.880242     0.1496E+03   0.02844  -0.07110
     761.00   3.881385     0.1461E+03   0.01813  -0.04532
     763.00   3.882524     0.1423E+03   0.00676  -0.01689
     765.00   3.883662     0.1381E+03  -0.00646   0.01615
     767.00   3.884795     0.1313E+03  -0.02814   0.07034
     769.00   3.885926     0.1340E+03  -0.01931   0.04828
     771.00   3.887054     0.1316E+03  -0.02729   0.06824
     773.00   3.888180     0.1322E+03  -0.02531   0.06327
     775.00   3.889302     0.1311E+03  -0.02881   0.07202
     777.00   3.890421     0.1332E+03  -0.02208   0.05520
     779.00   3.891537     0.1334E+03  -0.02148   0.05370
     781.00   3.892651     0.1340E+03  -0.01936   0.04841
     783.00   3.893762     0.1339E+03  -0.01975   0.04938
     785.00   3.894870     0.1327E+03  -0.02356   0.05890
     787.00   3.895975     0.1351E+03  -0.01602   0.04004
     789.00   3.897077     0.1348E+03  -0.01687   0.04219
     791.00   3.898176     0.1319E+03  -0.02633   0.06582
     793.00   3.899273     0.1327E+03  -0.02358   0.05895
     795.00   3.900367     0.1328E+03  -0.02338   0.05845
     797.00   3.901458     0.1361E+03  -0.01274   0.03185
     799.00   3.902547     0.1362E+03  -0.01234   0.03086
     801.00   3.903632     0.1395E+03  -0.00193   0.00483
     803.00   3.904716     0.1402E+03   0.00027  -0.00066
     805.00   3.905796     0.1397E+03  -0.00127   0.00318
     807.00   3.906873     0.1419E+03   0.00547  -0.01368
     809.00   3.907948     0.1411E+03   0.00288  -0.00719
     811.00   3.909021     0.1420E+03   0.00572  -0.01430
     813.00   3.910090     0.1442E+03   0.01233  -0.03082
     815.00   3.911158     0.1449E+03   0.01445  -0.03613
     817.00   3.912222     0.1450E+03   0.01485  -0.03711
     819.00   3.913284     0.1424E+03   0.00685  -0.01712
     821.00   3.914343     0.1406E+03   0.00145  -0.00362
     823.00   3.915400     0.1409E+03   0.00226  -0.00566
     825.00   3.916454     0.1408E+03   0.00210  -0.00525
     827.00   3.917506     0.1414E+03   0.00384  -0.00960
     829.00   3.918555     0.1402E+03   0.00022  -0.00054
     831.00   3.919601     0.1374E+03  -0.00842   0.02106
     833.00   3.920645     0.1362E+03  -0.01224   0.03061
     835.00   3.921686     0.1364E+03  -0.01173   0.02933
     837.00   3.922725     0.1367E+03  -0.01065   0.02662
     839.00   3.923762     0.1335E+03  -0.02109   0.05272
     841.00   3.924796     0.1366E+03  -0.01116   0.02791
     843.00   3.925828     0.1333E+03  -0.02169   0.05423
     845.00   3.926857     0.1302E+03  -0.03183   0.07957
     847.00   3.927883     0.1293E+03  -0.03510   0.08775
     849.00   3.928908     0.1308E+03  -0.02987   0.07467
     851.00   3.929929     0.1259E+03  -0.04651   0.11629
     853.00   3.930949     0.1303E+03  -0.03154   0.07885
     855.00   3.931966     0.1240E+03  -0.05309   0.13271
     857.00   3.932981     0.1329E+03  -0.02298   0.05744
     859.00   3.933993     0.1318E+03  -0.02649   0.06622
     861.00   3.935003     0.1328E+03  -0.02325   0.05812
     863.00   3.936011     0.1345E+03  -0.01787   0.04468
     865.00   3.937016     0.1350E+03  -0.01629   0.04071
     867.00   3.938019     0.1264E+03  -0.04470   0.11176
     869.00   3.939020     0.1326E+03  -0.02404   0.06010
     871.00   3.940018     0.1355E+03  -0.01474   0.03686
     873.00   3.941014     0.1359E+03  -0.01322   0.03304
     875.00   3.942008     0.1349E+03  -0.01670   0.04174
     877.00   3.943000     0.1361E+03  -0.01285   0.03212
     879.00   3.943989     0.1369E+03  -0.01021   0.02552
     881.00   3.944976     0.1349E+03  -0.01662   0.04154
     883.00   3.945961     0.1358E+03  -0.01379   0.03447
     885.00   3.946943     0.1350E+03  -0.01636   0.04091
     887.00   3.947924     0.1316E+03  -0.02731   0.06828
     889.00   3.948902     0.1327E+03  -0.02374   0.05935
     891.00   3.949878     0.1334E+03  -0.02145   0.05364
     893.00   3.950851     0.1320E+03  -0.02613   0.06534
     895.00   3.951823     0.1319E+03  -0.02624   0.06560
     897.00   3.952792     0.1322E+03  -0.02520   0.06301
     899.00   3.953760     0.1324E+03  -0.02470   0.06174
     901.00   3.954725     0.1294E+03  -0.03473   0.08681
     903.00   3.955688     0.1328E+03  -0.02335   0.05839
     905.00   3.956649     0.1349E+03  -0.01642   0.04105
     907.00   3.957607     0.1345E+03  -0.01796   0.04489
     909.00   3.958564     0.1322E+03  -0.02532   0.06331
     911.00   3.959518     0.1333E+03  -0.02185   0.05464
     913.00   3.960471     0.1343E+03  -0.01856   0.04640
     915.00   3.961421     0.1338E+03  -0.02010   0.05026
     917.00   3.962369     0.1334E+03  -0.02132   0.05331
     919.00   3.963315     0.1339E+03  -0.01993   0.04983
     921.00   3.964260     0.1309E+03  -0.02963   0.07407
     923.00   3.965202     0.1300E+03  -0.03271   0.08179
     925.00   3.966142     0.1292E+03  -0.03531   0.08827
     927.00   3.967080     0.1299E+03  -0.03288   0.08220
     929.00   3.968016     0.1285E+03  -0.03771   0.09427
     931.00   3.968950     0.1289E+03  -0.03644   0.09111
     933.00   3.969882     0.1289E+03  -0.03645   0.09112
     935.00   3.970812     0.1285E+03  -0.03749   0.09374
     937.00   3.971740     0.1269E+03  -0.04322   0.10804
     939.00   3.972666     0.1285E+03  -0.03777   0.09443
     941.00   3.973590     0.1266E+03  -0.04407   0.11018
     943.00   3.974512     0.1282E+03  -0.03868   0.09671
     945.00   3.975432     0.1269E+03  -0.04306   0.10765
     947.00   3.976350     0.1285E+03  -0.03772   0.09431
     949.00   3.977266     0.1285E+03  -0.03766   0.09416
     951.00   3.978180     0.1272E+03  -0.04219   0.10547
     953.00   3.979093     0.1276E+03  -0.04067   0.10167
     955.00   3.980003     0.1258E+03  -0.04683   0.11706
     957.00   3.980912     0.1266E+03  -0.04396   0.10990
     959.00   3.981819     0.1277E+03  -0.04036   0.10089
     961.00   3.982723     0.1265E+03  -0.04446   0.11114
     963.00   3.983626     0.1269E+03  -0.04324   0.10810
     965.00   3.984527     0.1253E+03  -0.04875   0.12187
     967.00   3.985426     0.1254E+03  -0.04832   0.12079
     969.00   3.986324     0.1263E+03  -0.04518   0.11294
     971.00   3.987219     0.1253E+03  -0.04870   0.12176
     973.00   3.988113     0.1245E+03  -0.05123   0.12806
     975.00   3.989005     0.1242E+03  -0.05233   0.13084
     977.00   3.989895     0.1244E+03  -0.05180   0.12951
     979.00   3.990783     0.1232E+03  -0.05599   0.13997
     981.00   3.991669     0.1250E+03  -0.04964   0.12411
     983.00   3.992553     0.1243E+03  -0.05204   0.13010
     985.00   3.993436     0.1246E+03  -0.05101   0.12752
     987.00   3.994317     0.1238E+03  -0.05380   0.13450
     989.00   3.995196     0.1235E+03  -0.05503   0.13758
     991.00   3.996074     0.1232E+03  -0.05602   0.14006
     993.00   3.996949     0.1233E+03  -0.05548   0.13871
     995.00   3.997823     0.1233E+03  -0.05546   0.13864
     997.00   3.998695     0.1233E+03  -0.05576   0.13941
     999.00   3.999566     0.1229E+03  -0.05698   0.14244
    1003.00   4.001301     0.1221E+03  -0.05992   0.14981
    1008.00   4.003461     0.1210E+03  -0.06369   0.15922
    1013.00   4.005610     0.1213E+03  -0.06275   0.15687
    1018.00   4.007748     0.1200E+03  -0.06730   0.16825
    1023.00   4.009875     0.1198E+03  -0.06797   0.16992
    1028.00   4.011993     0.1197E+03  -0.06864   0.17161
    1033.00   4.014100     0.1181E+03  -0.07421   0.18553
    1038.00   4.016197     0.1175E+03  -0.07666   0.19164
    1043.00   4.018284     0.1177E+03  -0.07591   0.18978
    1048.00   4.020361     0.1167E+03  -0.07932   0.19831
    1053.00   4.022429     0.1164E+03  -0.08050   0.20124
    1058.00   4.024486     0.1151E+03  -0.08550   0.21376
    1063.00   4.026533     0.1145E+03  -0.08765   0.21913
    1068.00   4.028571     0.1132E+03  -0.09287   0.23217
    1073.00   4.030600     0.1132E+03  -0.09270   0.23175
    1078.00   4.032619     0.1123E+03  -0.09633   0.24082
    1083.00   4.034628     0.1108E+03  -0.10189   0.25472
    1088.00   4.036629     0.1103E+03  -0.10397   0.25993
    1093.00   4.038620     0.1099E+03  -0.10544   0.26360
    1098.00   4.040603     0.1085E+03  -0.11100   0.27750
    1103.00   4.042576     0.1082E+03  -0.11234   0.28085
    1108.00   4.044539     0.1074E+03  -0.11574   0.28936
    1113.00   4.046495     0.1069E+03  -0.11763   0.29409
    1118.00   4.048442     0.1061E+03  -0.12067   0.30168
    1123.00   4.050380     0.1061E+03  -0.12103   0.30257
    1128.00   4.052309     0.1051E+03  -0.12498   0.31244
    1133.00   4.054230     0.1049E+03  -0.12570   0.31425
    1138.00   4.056142     0.1042E+03  -0.12856   0.32139
    1143.00   4.058046     0.1034E+03  -0.13209   0.33022
    1148.00   4.059942     0.1040E+03  -0.12933   0.32332
    1153.00   4.061830     0.1038E+03  -0.13029   0.32573
    1158.00   4.063708     0.1029E+03  -0.13433   0.33584
    1163.00   4.065579     0.1017E+03  -0.13927   0.34817
    1168.00   4.067443     0.1016E+03  -0.13956   0.34891
    1173.00   4.069298     0.1019E+03  -0.13826   0.34564
    1178.00   4.071145     0.1005E+03  -0.14438   0.36094
    1183.00   4.072985     0.9986E+02  -0.14719   0.36798
    1188.00   4.074817     0.9881E+02  -0.15177   0.37943
    1193.00   4.076640     0.9987E+02  -0.14715   0.36787
    1198.00   4.078457     0.9737E+02  -0.15814   0.39535
    1203.00   4.080266     0.9851E+02  -0.15306   0.38266
    1208.00   4.082067     0.9771E+02  -0.15661   0.39154
    1213.00   4.083861     0.9770E+02  -0.15666   0.39165
    1218.00   4.085648     0.9768E+02  -0.15674   0.39185
    1223.00   4.087426     0.9712E+02  -0.15927   0.39817
    1228.00   4.089198     0.9649E+02  -0.16206   0.40516
    1233.00   4.090963     0.9604E+02  -0.16410   0.41025
    1238.00   4.092721     0.9568E+02  -0.16574   0.41434
    1243.00   4.094471     0.9487E+02  -0.16942   0.42356
    1248.00   4.096214     0.9475E+02  -0.17000   0.42500
    1253.00   4.097951     0.9401E+02  -0.17337   0.43343
    1258.00   4.099681     0.9372E+02  -0.17475   0.43688
    1263.00   4.101403     0.9328E+02  -0.17676   0.44189
    1268.00   4.103119     0.9263E+02  -0.17979   0.44948
    1273.00   4.104828     0.9254E+02  -0.18025   0.45062
    1278.00   4.106531     0.9242E+02  -0.18078   0.45195
    1283.00   4.108227     0.9015E+02  -0.19158   0.47896
    1288.00   4.109916     0.9106E+02  -0.18726   0.46814
    1293.00   4.111598     0.9031E+02  -0.19084   0.47709
    1298.00   4.113275     0.9072E+02  -0.18884   0.47211
    1303.00   4.114944     0.8990E+02  -0.19283   0.48206
    1308.00   4.116608     0.8990E+02  -0.19282   0.48205
    1313.00   4.118265     0.8857E+02  -0.19925   0.49814
    1318.00   4.119915     0.8826E+02  -0.20082   0.50206
    1323.00   4.121560     0.8825E+02  -0.20084   0.50211
    1328.00   4.123198     0.8712E+02  -0.20647   0.51617
    1333.00   4.124830     0.8720E+02  -0.20604   0.51509
    1338.00   4.126456     0.8658E+02  -0.20915   0.52287
    1343.00   4.128076     0.8662E+02  -0.20896   0.52239
    1348.00   4.129690     0.8606E+02  -0.21175   0.52938
    1353.00   4.131298     0.8565E+02  -0.21382   0.53454
    1358.00   4.132900     0.8463E+02  -0.21906   0.54765
    1363.00   4.134496     0.8435E+02  -0.22046   0.55115
    1368.00   4.136086     0.8467E+02  -0.21884   0.54711
    1373.00   4.137671     0.8488E+02  -0.21778   0.54446
    1378.00   4.139249     0.8468E+02  -0.21877   0.54694
    1383.00   4.140822     0.8461E+02  -0.21914   0.54785
    1388.00   4.142389     0.8387E+02  -0.22298   0.55745
    1393.00   4.143951     0.7992E+02  -0.24390   0.60976
    1398.00   4.145507     0.8016E+02  -0.24261   0.60653
    1403.00   4.147058     0.7948E+02  -0.24628   0.61570
    1408.00   4.148602     0.7989E+02  -0.24405   0.61012
    1413.00   4.150142     0.7927E+02  -0.24744   0.61861
    1418.00   4.151676     0.7965E+02  -0.24538   0.61345
    1423.00   4.153205     0.7898E+02  -0.24905   0.62262
    1428.00   4.154728     0.7827E+02  -0.25300   0.63249
    1433.00   4.156246     0.7938E+02  -0.24686   0.61715
    1438.00   4.157759     0.7965E+02  -0.24537   0.61341
    1443.00   4.159266     0.7839E+02  -0.25231   0.63078
    1448.00   4.160769     0.7946E+02  -0.24644   0.61610
    1453.00   4.162266     0.7881E+02  -0.24997   0.62493
    1457.00   4.163460     0.7910E+02  -0.24838   0.62095
    1462.00   4.164948     0.7689E+02  -0.26067   0.65168
    1468.00   4.166726     0.7712E+02  -0.25943   0.64856
    1473.00   4.168202     0.7657E+02  -0.26248   0.65620
    1478.00   4.169674     0.7703E+02  -0.25990   0.64976
    1483.00   4.171141     0.7727E+02  -0.25857   0.64643
    1488.00   4.172603     0.7676E+02  -0.26143   0.65358
    1493.00   4.174060     0.7809E+02  -0.25398   0.63494
    1498.00   4.175512     0.7768E+02  -0.25624   0.64059
    1503.00   4.176959     0.7692E+02  -0.26055   0.65138
    1508.00   4.178401     0.7705E+02  -0.25978   0.64944
    1513.00   4.179839     0.7816E+02  -0.25359   0.63396
    1518.00   4.181272     0.7831E+02  -0.25274   0.63184
    1523.00   4.182700     0.7824E+02  -0.25315   0.63288
    1528.00   4.184123     0.7861E+02  -0.25107   0.62768
    1533.00   4.185542     0.7839E+02  -0.25233   0.63082
    1538.00   4.186956     0.7737E+02  -0.25800   0.64501
    1543.00   4.188366     0.7786E+02  -0.25524   0.63809
    1548.00   4.189771     0.7801E+02  -0.25442   0.63604
    1553.00   4.191172     0.7759E+02  -0.25674   0.64184
    1558.00   4.192567     0.7583E+02  -0.26675   0.66688
    1563.00   4.193959     0.7669E+02  -0.26182   0.65456
    1568.00   4.195346     0.7643E+02  -0.26330   0.65824
    1573.00   4.196729     0.7736E+02  -0.25807   0.64519
    1578.00   4.198107     0.7240E+02  -0.28685   0.71711
    1583.00   4.199481     0.7438E+02  -0.27509   0.68773
    1588.00   4.200850     0.7425E+02  -0.27586   0.68965
    1593.00   4.202216     0.7597E+02  -0.26593   0.66483
    1598.00   4.203577     0.7680E+02  -0.26118   0.65296
    1605.00   4.205475     0.7441E+02  -0.27496   0.68739
    1615.00   4.208173     0.7552E+02  -0.26848   0.67120
    1625.00   4.210854     0.7337E+02  -0.28102   0.70255
    1635.00   4.213518     0.7488E+02  -0.27218   0.68045
    1645.00   4.216166     0.7221E+02  -0.28797   0.71992
    1655.00   4.218798     0.7306E+02  -0.28290   0.70724
    1665.00   4.221415     0.7091E+02  -0.29588   0.73971
    1675.00   4.224015     0.7074E+02  -0.29688   0.74221
    1685.00   4.226600     0.6994E+02  -0.30182   0.75455
    1695.00   4.229170     0.6898E+02  -0.30785   0.76962
    1705.00   4.231725     0.6757E+02  -0.31679   0.79198
    1715.00   4.234264     0.6632E+02  -0.32490   0.81225
    1725.00   4.236789     0.6499E+02  -0.33370   0.83424
    1735.00   4.239300     0.6313E+02  -0.34635   0.86586
    1745.00   4.241796     0.6237E+02  -0.35162   0.87905
    1755.00   4.244277     0.6141E+02  -0.35834   0.89585
    1765.00   4.246745     0.6014E+02  -0.36738   0.91846
    1775.00   4.249198     0.5883E+02  -0.37694   0.94234
    1785.00   4.251638     0.5800E+02  -0.38312   0.95780
    1795.00   4.254065     0.5679E+02  -0.39231   0.98078
    1805.00   4.256477     0.5559E+02  -0.40154   1.00384
    1815.00   4.258877     0.5454E+02  -0.40988   1.02471
    1825.00   4.261263     0.5375E+02  -0.41615   1.04038
    1835.00   4.263636     0.5293E+02  -0.42287   1.05718
    1845.00   4.265996     0.5189E+02  -0.43150   1.07874
    1855.00   4.268344     0.5135E+02  -0.43602   1.09004
    1865.00   4.270679     0.5022E+02  -0.44567   1.11418
    1875.00   4.273001     0.4908E+02  -0.45570   1.13925
    1885.00   4.275311     0.4866E+02  -0.45942   1.14854
    1895.00   4.277609     0.4709E+02  -0.47368   1.18419
    1905.00   4.279895     0.4697E+02  -0.47475   1.18688
    1915.00   4.282169     0.4597E+02  -0.48408   1.21019
    1925.00   4.284431     0.4516E+02  -0.49183   1.22957
    1935.00   4.286681     0.4396E+02  -0.50356   1.25889
    1945.00   4.288919     0.4286E+02  -0.51450   1.28626
    1955.00   4.291147     0.4253E+02  -0.51791   1.29478
    1965.00   4.293363     0.4174E+02  -0.52598   1.31494
    1975.00   4.295567     0.4072E+02  -0.53678   1.34196
    1985.00   4.297760     0.4014E+02  -0.54299   1.35747
    1995.00   4.299943     0.3958E+02  -0.54912   1.37280
    2005.00   4.302114     0.3921E+02  -0.55311   1.38278
    2015.00   4.304275     0.3864E+02  -0.55956   1.39891
    2025.00   4.306425     0.3776E+02  -0.56949   1.42373
    2035.00   4.308564     0.3719E+02  -0.57611   1.44027
    2045.00   4.310693     0.3690E+02  -0.57949   1.44872
    2055.00   4.312812     0.3629E+02  -0.58684   1.46709
    2065.00   4.314920     0.3565E+02  -0.59453   1.48632
    2075.00   4.317018     0.3519E+02  -0.60019   1.50046
    2085.00   4.319106     0.3465E+02  -0.60688   1.51721
    2095.00   4.321184     0.3401E+02  -0.61495   1.53736
    2105.00   4.323252     0.3371E+02  -0.61880   1.54700
    2115.00   4.325311     0.3313E+02  -0.62629   1.56573
    2125.00   4.327359     0.3263E+02  -0.63296   1.58240
    2135.00   4.329398     0.3226E+02  -0.63796   1.59491
    2145.00   4.331428     0.3175E+02  -0.64481   1.61203
    2155.00   4.333447     0.3126E+02  -0.65158   1.62895
    2165.00   4.335458     0.3062E+02  -0.66050   1.65125
    2175.00   4.337460     0.3022E+02  -0.66621   1.66551
    2185.00   4.339452     0.2983E+02  -0.67197   1.67994
    2195.00   4.341434     0.2943E+02  -0.67772   1.69431
    2205.00   4.343409     0.2876E+02  -0.68778   1.71946
    2215.00   4.345374     0.2859E+02  -0.69038   1.72594
    2225.00   4.347330     0.2796E+02  -0.70009   1.75023
    2235.00   4.349277     0.2759E+02  -0.70586   1.76465
    2245.00   4.351216     0.2718E+02  -0.71228   1.78069
    2255.00   4.353147     0.2682E+02  -0.71814   1.79535
    2265.00   4.355068     0.2629E+02  -0.72676   1.81689
    2275.00   4.356981     0.2604E+02  -0.73089   1.82723
    2285.00   4.358886     0.2553E+02  -0.73950   1.84876
    2295.00   4.360783     0.2104E+02  -0.82346   2.05866
    2305.00   4.362671     0.2297E+02  -0.78537   1.96344
    2315.00   4.364551     0.2287E+02  -0.78738   1.96845
    2325.00   4.366423     0.1954E+02  -0.85554   2.13885
    2335.00   4.368287     0.2114E+02  -0.82140   2.05349
    2345.00   4.370143     0.1981E+02  -0.84966   2.12416
    2355.00   4.371991     0.1820E+02  -0.88657   2.21642
    2365.00   4.373831     0.1962E+02  -0.85398   2.13494
    2375.00   4.375664     0.1857E+02  -0.87780   2.19449
    2385.00   4.377488     0.1719E+02  -0.91123   2.27807
    2395.00   4.379306     0.1830E+02  -0.88420   2.21051
    2405.00   4.381115     0.1770E+02  -0.89853   2.24633
    2415.00   4.382917     0.1633E+02  -0.93349   2.33372
    2425.00   4.384712     0.1722E+02  -0.91055   2.27638
    2435.00   4.386499     0.1660E+02  -0.92655   2.31636
    2445.00   4.388279     0.1648E+02  -0.92961   2.32403
    2455.00   4.390052     0.1599E+02  -0.94260   2.35649
    2465.00   4.391817     0.1604E+02  -0.94123   2.35307
    2475.00   4.393575     0.1562E+02  -0.95277   2.38194
    2485.00   4.395327     0.1399E+02  -1.00076   2.50190
    2495.00   4.397071     0.1362E+02  -1.01248   2.53121
    2505.00   4.398808     0.1380E+02  -1.00664   2.51659
    2515.00   4.400538     0.1318E+02  -1.02660   2.56651
    2525.00   4.402262     0.1349E+02  -1.01670   2.54174
    2535.00   4.403978     0.1352E+02  -1.01566   2.53915
    2545.00   4.405688     0.1337E+02  -1.02043   2.55108
    2555.00   4.407391     0.1334E+02  -1.02132   2.55331
    2565.00   4.409087     0.1343E+02  -1.01856   2.54640
    2575.00   4.410777     0.1351E+02  -1.01589   2.53972
    2585.00   4.412460     0.1317E+02  -1.02682   2.56705
    2595.00   4.414137     0.1322E+02  -1.02523   2.56309
    2605.00   4.415808     0.1321E+02  -1.02565   2.56413
    2615.00   4.417472     0.1301E+02  -1.03242   2.58106
    2625.00   4.419129     0.1281E+02  -1.03907   2.59768
    2635.00   4.420781     0.1281E+02  -1.03904   2.59760
    2645.00   4.422426     0.1270E+02  -1.04280   2.60701
    2655.00   4.424065     0.1254E+02  -1.04837   2.62092
    2665.00   4.425697     0.1234E+02  -1.05517   2.63793
    2675.00   4.427324     0.1243E+02  -1.05218   2.63045
    2685.00   4.428945     0.1229E+02  -1.05687   2.64218
    2695.00   4.430559     0.1208E+02  -1.06433   2.66083
    2705.00   4.432167     0.1205E+02  -1.06546   2.66365
    2715.00   4.433770     0.1194E+02  -1.06964   2.67409
    2725.00   4.435367     0.1186E+02  -1.07260   2.68149
    2735.00   4.436957     0.1167E+02  -1.07957   2.69893
    2745.00   4.438542     0.1162E+02  -1.08120   2.70300
    2755.00   4.440122     0.1154E+02  -1.08451   2.71127
    2765.00   4.441695     0.1139E+02  -1.08995   2.72488
    2775.00   4.443263     0.1125E+02  -1.09542   2.73855
    2785.00   4.444825     0.1119E+02  -1.09778   2.74444
    2795.00   4.446382     0.1112E+02  -1.10035   2.75087
    2805.00   4.447933     0.1100E+02  -1.10511   2.76277
    2815.00   4.449478     0.1086E+02  -1.11068   2.77671
    2825.00   4.451018     0.1077E+02  -1.11423   2.78558
    2835.00   4.452553     0.1069E+02  -1.11741   2.79351
    2845.00   4.454082     0.1057E+02  -1.12255   2.80637
    2855.00   4.455606     0.1046E+02  -1.12707   2.81768
    2865.00   4.457125     0.1036E+02  -1.13136   2.82841
    2875.00   4.458638     0.1025E+02  -1.13600   2.84000
    2885.00   4.460146     0.1015E+02  -1.13990   2.84974
    2895.00   4.461648     0.1005E+02  -1.14422   2.86054
    2905.00   4.463146     0.9946E+01  -1.14891   2.87227
    2915.00   4.464639     0.9854E+01  -1.15294   2.88235
    2925.00   4.466126     0.9707E+01  -1.15946   2.89864
    2935.00   4.467608     0.9658E+01  -1.16170   2.90425
    2945.00   4.469085     0.9540E+01  -1.16701   2.91752
    2955.00   4.470557     0.9449E+01  -1.17118   2.92794
    2965.00   4.472025     0.9367E+01  -1.17495   2.93738
    2975.00   4.473487     0.9272E+01  -1.17938   2.94845
    2985.00   4.474944     0.9167E+01  -1.18434   2.96084
    2995.00   4.476397     0.9068E+01  -1.18903   2.97258
    3005.00   4.477844     0.8980E+01  -1.19329   2.98324
    3015.00   4.479287     0.8910E+01  -1.19671   2.99177
    3025.00   4.480725     0.8812E+01  -1.20147   3.00369
    3035.00   4.482159     0.8710E+01  -1.20655   3.01637
    3045.00   4.483587     0.8657E+01  -1.20919   3.02298
    3055.00   4.485011     0.8570E+01  -1.21359   3.03397
    3065.00   4.486430     0.8486E+01  -1.21784   3.04461
    3075.00   4.487845     0.8419E+01  -1.22129   3.05323
    3085.00   4.489255     0.8321E+01  -1.22639   3.06598
    3095.00   4.490661     0.8251E+01  -1.23006   3.07515
    3105.00   4.492062     0.8187E+01  -1.23344   3.08359
    3115.00   4.493458     0.8073E+01  -1.23952   3.09880
    3125.00   4.494850     0.8022E+01  -1.24226   3.10565
    3135.00   4.496238     0.7947E+01  -1.24637   3.11592
    3145.00   4.497621     0.7868E+01  -1.25070   3.12676
    3155.00   4.499000     0.7781E+01  -1.25553   3.13883
    3165.00   4.500374     0.7703E+01  -1.25991   3.14978
    3175.00   4.501744     0.7639E+01  -1.26352   3.15881
    3185.00   4.503109     0.7563E+01  -1.26786   3.16965
    3195.00   4.504471     0.7495E+01  -1.27180   3.17951
    3210.00   4.506505     0.7378E+01  -1.27864   3.19661
    3230.00   4.509202     0.7229E+01  -1.28751   3.21877
    3250.00   4.511883     0.7085E+01  -1.29625   3.24063
    3270.00   4.514548     0.6939E+01  -1.30530   3.26324
    3290.00   4.517196     0.6788E+01  -1.31483   3.28708
    3310.00   4.519828     0.6658E+01  -1.32323   3.30807
    3330.00   4.522444     0.6516E+01  -1.33256   3.33140
    3350.00   4.525045     0.6394E+01  -1.34077   3.35191
    3370.00   4.527630     0.6260E+01  -1.35002   3.37504
    3390.00   4.530200     0.6124E+01  -1.35950   3.39875
    3410.00   4.532754     0.5994E+01  -1.36888   3.42221
    3430.00   4.535294     0.5883E+01  -1.37695   3.44237
    3450.00   4.537819     0.5766E+01  -1.38572   3.46430
    3470.00   4.540329     0.5645E+01  -1.39491   3.48727
    3490.00   4.542826     0.5531E+01  -1.40379   3.50948
    3510.00   4.545307     0.5421E+01  -1.41247   3.53118
    3530.00   4.547775     0.5304E+01  -1.42198   3.55496
    3550.00   4.550228     0.5202E+01  -1.43041   3.57602
    3570.00   4.552669     0.5095E+01  -1.43944   3.59861
    3590.00   4.555095     0.4994E+01  -1.44814   3.62035
    3610.00   4.557508     0.4900E+01  -1.45635   3.64087
    3630.00   4.559907     0.4802E+01  -1.46519   3.66297
    3650.00   4.562293     0.4698E+01  -1.47462   3.68654
    3670.00   4.564666     0.4603E+01  -1.48352   3.70880
    3690.00   4.567026     0.4502E+01  -1.49317   3.73294
    3710.00   4.569374     0.4410E+01  -1.50215   3.75538
    3730.00   4.571709     0.4335E+01  -1.50961   3.77401
    3750.00   4.574031     0.4235E+01  -1.51976   3.79939
    3770.00   4.576342     0.4168E+01  -1.52663   3.81656
    3790.00   4.578639     0.4085E+01  -1.53535   3.83838
    3810.00   4.580925     0.4009E+01  -1.54348   3.85869
    3830.00   4.583199     0.3937E+01  -1.55141   3.87851
    3850.00   4.585461     0.3863E+01  -1.55963   3.89907
    3870.00   4.587711     0.3780E+01  -1.56907   3.92267
    3890.00   4.589950     0.3712E+01  -1.57690   3.94226
    3910.00   4.592176     0.3645E+01  -1.58486   3.96214
    3930.00   4.594393     0.3577E+01  -1.59309   3.98273
    3950.00   4.596597     0.3501E+01  -1.60242   4.00604
    3970.00   4.598790     0.3439E+01  -1.61019   4.02547
    3990.00   4.600973     0.3363E+01  -1.61987   4.04966
    4010.00   4.603145     0.3308E+01  -1.62698   4.06744
    4030.00   4.605305     0.3252E+01  -1.63436   4.08591
    4050.00   4.607455     0.3186E+01  -1.64335   4.10838
    4070.00   4.609594     0.3132E+01  -1.65077   4.12692
    4090.00   4.611723     0.3076E+01  -1.65864   4.14659
    4110.00   4.613842     0.3022E+01  -1.66620   4.16550
    4130.00   4.615950     0.2972E+01  -1.67352   4.18381
    4150.00   4.618048     0.2918E+01  -1.68151   4.20379
    4170.00   4.620136     0.2867E+01  -1.68914   4.22284
    4190.00   4.622214     0.2815E+01  -1.69710   4.24275
    4210.00   4.624282     0.2763E+01  -1.70518   4.26296
    4230.00   4.626340     0.2726E+01  -1.71108   4.27770
    4250.00   4.628389     0.2675E+01  -1.71931   4.29827
    4270.00   4.630428     0.2633E+01  -1.72609   4.31524
    4290.00   4.632457     0.2514E+01  -1.74613   4.36532
    4310.00   4.634478     0.2395E+01  -1.76728   4.41821
    4330.00   4.636488     0.2386E+01  -1.76888   4.42220
    4350.00   4.638489     0.2284E+01  -1.78780   4.46949
    4370.00   4.640481     0.2223E+01  -1.79960   4.49901
    4390.00   4.642465     0.2177E+01  -1.80863   4.52156
    4410.00   4.644439     0.2094E+01  -1.82566   4.56415
    4430.00   4.646404     0.2062E+01  -1.83225   4.58062
    4450.00   4.648360     0.2025E+01  -1.84020   4.60049
    4470.00   4.650308     0.1955E+01  -1.85532   4.63829
    4490.00   4.652246     0.1951E+01  -1.85632   4.64081
    4510.00   4.654177     0.1902E+01  -1.86728   4.66821
    4530.00   4.656098     0.1854E+01  -1.87847   4.69619
    4550.00   4.658011     0.1843E+01  -1.88098   4.70245
    4570.00   4.659916     0.1821E+01  -1.88630   4.71576
    4590.00   4.661813     0.1765E+01  -1.89992   4.74980
    4610.00   4.663701     0.1765E+01  -1.89983   4.74957
    4630.00   4.665581     0.1731E+01  -1.90819   4.77047
    4650.00   4.667453     0.1713E+01  -1.91271   4.78178
    4670.00   4.669317     0.1701E+01  -1.91587   4.78967
    4690.00   4.671173     0.1669E+01  -1.92406   4.81016
    4710.00   4.673021     0.1641E+01  -1.93142   4.82855
    4730.00   4.674861     0.1640E+01  -1.93162   4.82904
    4750.00   4.676694     0.1604E+01  -1.94124   4.85310
    4770.00   4.678518     0.1583E+01  -1.94698   4.86744
    4790.00   4.680336     0.1568E+01  -1.95131   4.87826
    4810.00   4.682145     0.1530E+01  -1.96177   4.90443
    4830.00   4.683947     0.1532E+01  -1.96130   4.90325
    4850.00   4.685741     0.1505E+01  -1.96917   4.92292
    4870.00   4.687529     0.1476E+01  -1.97757   4.94391
    4890.00   4.689309     0.1456E+01  -1.98342   4.95855
    4910.00   4.691082     0.1438E+01  -1.98874   4.97184
    4930.00   4.692847     0.1415E+01  -1.99566   4.98916
    4950.00   4.694605     0.1392E+01  -2.00284   5.00711
    4970.00   4.696356     0.1381E+01  -2.00637   5.01592
    4990.00   4.698101     0.1362E+01  -2.01253   5.03133
    5010.00   4.699838     0.1344E+01  -2.01807   5.04518
    5030.00   4.701568     0.1327E+01  -2.02378   5.05945
    5050.00   4.703291     0.1299E+01  -2.03284   5.08211
    5070.00   4.705008     0.1288E+01  -2.03656   5.09141
    5090.00   4.706717     0.1273E+01  -2.04189   5.10473
    5110.00   4.708421     0.1250E+01  -2.04966   5.12416
    5130.00   4.710117     0.1241E+01  -2.05283   5.13208
    5150.00   4.711807     0.1219E+01  -2.06047   5.15117
    5170.00   4.713490     0.1213E+01  -2.06267   5.15668
    5190.00   4.715167     0.1191E+01  -2.07066   5.17664
    5210.00   4.716838     0.1178E+01  -2.07536   5.18839
    5230.00   4.718502     0.1159E+01  -2.08266   5.20664
    5250.00   4.720160     0.1149E+01  -2.08633   5.21583
    5270.00   4.721810     0.1142E+01  -2.08904   5.22261
    5290.00   4.723455     0.1117E+01  -2.09866   5.24664
    5310.00   4.725095     0.1103E+01  -2.10406   5.26015
    5330.00   4.726727     0.1092E+01  -2.10819   5.27047
    5350.00   4.728354     0.1079E+01  -2.11337   5.28343
    5370.00   4.729974     0.1067E+01  -2.11830   5.29575
    5390.00   4.731589     0.1055E+01  -2.12332   5.30830
    5410.00   4.733197     0.1042E+01  -2.12860   5.32150
    5430.00   4.734800     0.1024E+01  -2.13634   5.34085
    5450.00   4.736397     0.1018E+01  -2.13884   5.34710
    5470.00   4.737988     0.1002E+01  -2.14570   5.36426
    5490.00   4.739573     0.9910E+00  -2.15051   5.37627
    5510.00   4.741152     0.9781E+00  -2.15620   5.39051
    5530.00   4.742725     0.9774E+00  -2.15648   5.39119
    5550.00   4.744293     0.9536E+00  -2.16718   5.41794
    5570.00   4.745855     0.9503E+00  -2.16871   5.42178
    5590.00   4.747412     0.9348E+00  -2.17586   5.43964
    5610.00   4.748963     0.9268E+00  -2.17960   5.44900
    5630.00   4.750508     0.9109E+00  -2.18709   5.46772
    5650.00   4.752048     0.9053E+00  -2.18979   5.47446
    5670.00   4.753583     0.8942E+00  -2.19512   5.48781
    5690.00   4.755112     0.8791E+00  -2.20253   5.50633
    5710.00   4.756636     0.8743E+00  -2.20491   5.51229
    5730.00   4.758155     0.8632E+00  -2.21044   5.52611
    5750.00   4.759668     0.8530E+00  -2.21563   5.53908
    5770.00   4.761176     0.8418E+00  -2.22138   5.55344
    5790.00   4.762679     0.8351E+00  -2.22484   5.56211
    5810.00   4.764176     0.8225E+00  -2.23142   5.57855
    5830.00   4.765669     0.8136E+00  -2.23617   5.59042
    5850.00   4.767156     0.8045E+00  -2.24104   5.60261
    5870.00   4.768638     0.7925E+00  -2.24756   5.61891
    5890.00   4.770115     0.7840E+00  -2.25227   5.63067
    5910.00   4.771587     0.7755E+00  -2.25699   5.64246
    5930.00   4.773055     0.7671E+00  -2.26173   5.65432
    5950.00   4.774517     0.7567E+00  -2.26767   5.66917
    5970.00   4.775974     0.7498E+00  -2.27163   5.67906
    5990.00   4.777427     0.7410E+00  -2.27677   5.69193
    6010.00   4.778874     0.7323E+00  -2.28186   5.70465
    6030.00   4.780317     0.7237E+00  -2.28702   5.71755
    6050.00   4.781755     0.7136E+00  -2.29314   5.73285
    6070.00   4.783189     0.7056E+00  -2.29804   5.74509
    6090.00   4.784617     0.6973E+00  -2.30314   5.75785
    6110.00   4.786041     0.6884E+00  -2.30873   5.77184
    6130.00   4.787460     0.6816E+00  -2.31306   5.78266
    6150.00   4.788875     0.6742E+00  -2.31779   5.79448
    6170.00   4.790285     0.6673E+00  -2.32225   5.80563
    6190.00   4.791691     0.6594E+00  -2.32742   5.81854
    6210.00   4.793092     0.6523E+00  -2.33209   5.83022
    6230.00   4.794488     0.6438E+00  -2.33782   5.84456
    6250.00   4.795880     0.6355E+00  -2.34347   5.85868
    6270.00   4.797267     0.6282E+00  -2.34844   5.87109
    6290.00   4.798651     0.6215E+00  -2.35310   5.88275
    6310.00   4.800029     0.6141E+00  -2.35831   5.89578
    6330.00   4.801404     0.6084E+00  -2.36235   5.90587
    6350.00   4.802773     0.6007E+00  -2.36788   5.91971
    6370.00   4.804139     0.5952E+00  -2.37194   5.92984
    6390.00   4.805501     0.5871E+00  -2.37784   5.94459
    6420.00   4.807535     0.5776E+00  -2.38490   5.96225
    6460.00   4.810232     0.5643E+00  -2.39506   5.98766
    6500.00   4.812913     0.5518E+00  -2.40476   6.01191
    6540.00   4.815578     0.5395E+00  -2.41460   6.03651
    6580.00   4.818226     0.5279E+00  -2.42402   6.06005
    6620.00   4.820858     0.5159E+00  -2.43398   6.08494
    6660.00   4.823474     0.5046E+00  -2.44358   6.10895
    6700.00   4.826075     0.4937E+00  -2.45310   6.13276
    6740.00   4.828660     0.4827E+00  -2.46293   6.15732
    6780.00   4.831230     0.4722E+00  -2.47241   6.18103
    6820.00   4.833784     0.4619E+00  -2.48199   6.20498
    6860.00   4.836324     0.4521E+00  -2.49128   6.22821
    6900.00   4.838849     0.4423E+00  -2.50086   6.25216
    6940.00   4.841359     0.4328E+00  -2.51023   6.27558
    6980.00   4.843855     0.4237E+00  -2.51953   6.29884
    7020.00   4.846337     0.4145E+00  -2.52902   6.32256
    7060.00   4.848804     0.4059E+00  -2.53811   6.34529
    7100.00   4.851258     0.3974E+00  -2.54738   6.36846
    7140.00   4.853698     0.3891E+00  -2.55651   6.39127
    7180.00   4.856124     0.3809E+00  -2.56571   6.41429
    7220.00   4.858537     0.3731E+00  -2.57478   6.43694
    7260.00   4.860937     0.3653E+00  -2.58390   6.45974
    7300.00   4.863323     0.3578E+00  -2.59286   6.48216
    7340.00   4.865696     0.3505E+00  -2.60194   6.50484
    7380.00   4.868056     0.3434E+00  -2.61078   6.52695
    7420.00   4.870404     0.3362E+00  -2.61991   6.54977
    7460.00   4.872739     0.3294E+00  -2.62885   6.57212
    7500.00   4.875061     0.3229E+00  -2.63754   6.59385
    7540.00   4.877371     0.3164E+00  -2.64637   6.61592
    7580.00   4.879669     0.3103E+00  -2.65482   6.63705
    7620.00   4.881955     0.3041E+00  -2.66351   6.65876
    7660.00   4.884229     0.2981E+00  -2.67214   6.68035
    7700.00   4.886491     0.2923E+00  -2.68080   6.70201
    7740.00   4.888741     0.2866E+00  -2.68930   6.72325
    7780.00   4.890980     0.2810E+00  -2.69779   6.74448
    7820.00   4.893207     0.2756E+00  -2.70629   6.76572
    7860.00   4.895422     0.2703E+00  -2.71471   6.78677
    7900.00   4.897627     0.2651E+00  -2.72311   6.80778
    7940.00   4.899820     0.2601E+00  -2.73148   6.82869
    7980.00   4.902003     0.2552E+00  -2.73976   6.84941
    8020.00   4.904174     0.2503E+00  -2.74818   6.87044
    8060.00   4.906335     0.2456E+00  -2.75641   6.89102
    8100.00   4.908485     0.2410E+00  -2.76452   6.91129
    8140.00   4.910625     0.2365E+00  -2.77276   6.93190
    8180.00   4.912753     0.2322E+00  -2.78079   6.95198
    8220.00   4.914872     0.2279E+00  -2.78886   6.97214
    8260.00   4.916980     0.2237E+00  -2.79694   6.99234
    8300.00   4.919078     0.2196E+00  -2.80493   7.01233
    8340.00   4.921166     0.2155E+00  -2.81302   7.03256
    8380.00   4.923244     0.2116E+00  -2.82098   7.05244
    8420.00   4.925312     0.2079E+00  -2.82876   7.07190
    8460.00   4.927370     0.2041E+00  -2.83667   7.09168
    8500.00   4.929419     0.2005E+00  -2.84450   7.11124
    8540.00   4.931458     0.1969E+00  -2.85227   7.13067
    8580.00   4.933487     0.1934E+00  -2.86002   7.15004
    8620.00   4.935507     0.1900E+00  -2.86774   7.16934
    8660.00   4.937518     0.1867E+00  -2.87540   7.18849
    8700.00   4.939519     0.1834E+00  -2.88307   7.20766
    8740.00   4.941511     0.1802E+00  -2.89070   7.22674
    8780.00   4.943495     0.1771E+00  -2.89831   7.24577
    8820.00   4.945469     0.1740E+00  -2.90594   7.26484
    8860.00   4.947433     0.1710E+00  -2.91345   7.28362
    8900.00   4.949390     0.1681E+00  -2.92098   7.30246
    8940.00   4.951338     0.1653E+00  -2.92837   7.32093
    8980.00   4.953277     0.1624E+00  -2.93594   7.33985
    9020.00   4.955207     0.1597E+00  -2.94320   7.35801
    9060.00   4.957129     0.1570E+00  -2.95053   7.37634
    9100.00   4.959042     0.1543E+00  -2.95811   7.39529
    9140.00   4.960946     0.1518E+00  -2.96527   7.41318
    9180.00   4.962843     0.1493E+00  -2.97253   7.43133
    9220.00   4.964731     0.1469E+00  -2.97969   7.44922
    9260.00   4.966611     0.1444E+00  -2.98693   7.46732
    9300.00   4.968483     0.1421E+00  -2.99410   7.48525
    9340.00   4.970347     0.1397E+00  -3.00128   7.50321
    9380.00   4.972203     0.1375E+00  -3.00838   7.52096
    9420.00   4.974051     0.1352E+00  -3.01549   7.53872
    9460.00   4.975891     0.1330E+00  -3.02259   7.55647
    9500.00   4.977724     0.1309E+00  -3.02962   7.57406
    9540.00   4.979548     0.1288E+00  -3.03663   7.59159
    9580.00   4.981365     0.1268E+00  -3.04360   7.60901
    9620.00   4.983175     0.1247E+00  -3.05058   7.62644
    9660.00   4.984977     0.1228E+00  -3.05748   7.64370
    9700.00   4.986772     0.1208E+00  -3.06437   7.66094
    9740.00   4.988559     0.1189E+00  -3.07147   7.67868
    9780.00   4.990339     0.1171E+00  -3.07818   7.69544
    9820.00   4.992111     0.1152E+00  -3.08494   7.71236
    9860.00   4.993877     0.1135E+00  -3.09173   7.72932
    9900.00   4.995635     0.1117E+00  -3.09848   7.74620
    9940.00   4.997386     0.1100E+00  -3.10525   7.76314
    9980.00   4.999130     0.1083E+00  -3.11196   7.77991
   10020.00   5.000868     0.1066E+00  -3.11865   7.79662
   20000.00   5.301030     0.7216E-02  -4.28826  10.72065
   40000.00   5.602060     0.4652E-03  -5.47889  13.69723
   60000.00   5.778151     0.9259E-04  -6.18000  15.45000
   80000.00   5.903090     0.2936E-04  -6.67880  16.69700
  100000.00   6.000000     0.1203E-04  -7.06630  17.66575
  120000.00   6.079181     0.5798E-05  -7.38326  18.45814
  140000.00   6.146128     0.3127E-05  -7.65142  19.12855
  160000.00   6.204120     0.1831E-05  -7.88384  19.70961
