age =   16.0    [Fe/H] =    0.00

wavele(nm) log wave(A)   Hlam       log(Hlam/Hlam(V))  Hlam(mag(V)) 
      89.50   2.951823     0.9910E-13 -15.08666  37.71665
      90.50   2.956649     0.1605E-12 -14.87738  37.19346
      91.50   2.961421     0.2511E-12 -14.68292  36.70731
      92.50   2.966142     0.4643E-11 -13.41598  33.53994
      93.50   2.970812     0.6517E-11 -13.26870  33.17175
      94.50   2.975432     0.9664E-11 -13.09758  32.74394
      95.50   2.980003     0.1484E-10 -12.91139  32.27848
      96.50   2.984527     0.2229E-10 -12.73467  31.83668
      97.50   2.989005     0.3016E-10 -12.60335  31.50838
      98.50   2.993436     0.4327E-10 -12.44660  31.11649
      99.50   2.997823     0.5997E-10 -12.30477  30.76193
     100.50   3.002166     0.9012E-10 -12.12791  30.31978
     101.50   3.006466     0.1247E-09 -11.98691  29.96728
     102.50   3.010724     0.1451E-09 -11.92107  29.80267
     103.50   3.014940     0.2429E-09 -11.69724  29.24311
     104.50   3.019116     0.3412E-09 -11.54968  28.87419
     105.50   3.023252     0.4336E-09 -11.44561  28.61403
     106.50   3.027350     0.6021E-09 -11.30309  28.25771
     107.50   3.031409     0.8206E-09 -11.16860  27.92149
     108.50   3.035430     0.1117E-08 -11.03472  27.58679
     109.50   3.039414     0.1401E-08 -10.93642  27.34106
     110.50   3.043362     0.3844E-08 -10.49793  26.24482
     111.50   3.047275     0.5981E-08 -10.30598  25.76495
     112.50   3.051152     0.8688E-08 -10.14383  25.35958
     113.50   3.054996     0.1292E-07  -9.97157  24.92892
     114.50   3.058805     0.1736E-07  -9.84321  24.60802
     115.50   3.062582     0.2100E-07  -9.76050  24.40126
     116.50   3.066326     0.2842E-07  -9.62918  24.07296
     117.50   3.070038     0.3717E-07  -9.51259  23.78147
     118.50   3.073718     0.4261E-07  -9.45325  23.63312
     119.50   3.077368     0.4066E-07  -9.47361  23.68403
     120.50   3.080987     0.4594E-07  -9.42056  23.55139
     121.50   3.084576     0.1570E-07  -9.88678  24.71695
     122.50   3.088136     0.6473E-07  -9.27161  23.17903
     123.50   3.091667     0.1157E-06  -9.01947  22.54868
     124.50   3.095169     0.1526E-06  -8.89920  22.24800
     125.50   3.098644     0.1832E-06  -8.81979  22.04948
     126.50   3.102091     0.2051E-06  -8.77074  21.92686
     127.50   3.105510     0.2500E-06  -8.68475  21.71187
     128.50   3.108903     0.2817E-06  -8.63303  21.58257
     129.50   3.112270     0.3440E-06  -8.54622  21.36556
     130.50   3.115611     0.3728E-06  -8.51126  21.27816
     131.50   3.118926     0.4659E-06  -8.41447  21.03617
     132.50   3.122216     0.4925E-06  -8.39035  20.97586
     133.50   3.125481     0.5561E-06  -8.33757  20.84391
     134.50   3.128722     0.6662E-06  -8.25911  20.64776
     135.50   3.131939     0.7931E-06  -8.18344  20.45860
     136.50   3.135133     0.8637E-06  -8.14636  20.36589
     137.50   3.138303     0.9545E-06  -8.10297  20.25742
     138.50   3.141450     0.1067E-05  -8.05474  20.13686
     139.50   3.144574     0.1216E-05  -7.99765  19.99414
     140.50   3.147676     0.1502E-05  -7.90611  19.76528
     141.50   3.150756     0.1738E-05  -7.84276  19.60689
     142.50   3.153815     0.2035E-05  -7.77424  19.43560
     143.50   3.156852     0.2454E-05  -7.69288  19.23221
     144.20   3.158965     0.3139E-05  -7.58596  18.96489
     144.70   3.160469     0.2885E-05  -7.62264  19.05660
     145.50   3.162863     0.3397E-05  -7.55168  18.87920
     146.50   3.165838     0.4388E-05  -7.44045  18.60113
     147.50   3.168792     0.5067E-05  -7.37802  18.44505
     148.50   3.171726     0.5526E-05  -7.34035  18.35088
     149.50   3.174641     0.7210E-05  -7.22482  18.06205
     150.50   3.177536     0.8866E-05  -7.13502  17.83756
     151.20   3.179552     0.6978E-05  -7.23903  18.09758
     151.70   3.180986     0.8816E-05  -7.13746  17.84365
     152.50   3.183270     0.2177E-04  -6.74483  16.86208
     153.50   3.186108     0.3723E-04  -6.51183  16.27957
     154.50   3.188928     0.3054E-04  -6.59789  16.49472
     155.50   3.191730     0.5216E-04  -6.36544  15.91359
     156.50   3.194514     0.4942E-04  -6.38881  15.97201
     157.50   3.197281     0.9973E-04  -6.08393  15.20983
     158.50   3.200029     0.1219E-03  -5.99685  14.99213
     159.50   3.202761     0.1439E-03  -5.92482  14.81204
     160.50   3.205475     0.1540E-03  -5.89530  14.73824
     161.50   3.208173     0.1692E-03  -5.85443  14.63609
     162.50   3.210853     0.1916E-03  -5.80027  14.50068
     163.50   3.213518     0.2303E-03  -5.72040  14.30101
     164.50   3.216166     0.3322E-03  -5.56140  13.90350
     165.50   3.218798     0.2204E-03  -5.73946  14.34865
     166.50   3.221414     0.3921E-03  -5.48940  13.72350
     167.20   3.223236     0.2738E-03  -5.64526  14.11315
     167.70   3.224533     0.1082E-02  -5.04845  12.62114
     168.50   3.226600     0.1221E-02  -4.99612  12.49029
     169.50   3.229170     0.1545E-02  -4.89370  12.23426
     170.50   3.231725     0.1662E-02  -4.86217  12.15543
     171.50   3.234264     0.1562E-02  -4.88912  12.22279
     172.50   3.236789     0.2055E-02  -4.76984  11.92459
     173.50   3.239300     0.2463E-02  -4.69135  11.72838
     174.50   3.241796     0.3442E-02  -4.54591  11.36478
     175.50   3.244277     0.4645E-02  -4.41578  11.03945
     176.50   3.246745     0.4413E-02  -4.43802  11.09506
     177.50   3.249198     0.4739E-02  -4.40706  11.01764
     178.50   3.251638     0.6355E-02  -4.27961  10.69903
     179.50   3.254065     0.7556E-02  -4.20446  10.51115
     180.50   3.256477     0.8325E-02  -4.16236  10.40590
     181.50   3.258877     0.7826E-02  -4.18921  10.47303
     182.50   3.261263     0.1007E-01  -4.07987  10.19967
     183.50   3.263636     0.1049E-01  -4.06177  10.15442
     184.50   3.265996     0.8119E-02  -4.17326  10.43316
     185.50   3.268344     0.1155E-01  -4.02008  10.05020
     186.50   3.270679     0.1367E-01  -3.94684   9.86710
     187.50   3.273001     0.1486E-01  -3.91074   9.77686
     188.50   3.275311     0.1605E-01  -3.87735   9.69337
     189.50   3.277609     0.2116E-01  -3.75728   9.39319
     190.50   3.279895     0.2068E-01  -3.76713   9.41782
     191.50   3.282169     0.2335E-01  -3.71446   9.28614
     192.50   3.284431     0.2385E-01  -3.70531   9.26328
     193.50   3.286681     0.1709E-01  -3.84998   9.62494
     194.50   3.288920     0.3089E-01  -3.59299   8.98246
     195.50   3.291147     0.3282E-01  -3.56658   8.91645
     196.70   3.293804     0.4246E-01  -3.45471   8.63678
     197.60   3.295787     0.4141E-01  -3.46566   8.66414
     198.40   3.297542     0.4800E-01  -3.40151   8.50378
     199.50   3.299943     0.4949E-01  -3.38822   8.47056
     200.50   3.302114     0.4878E-01  -3.39451   8.48627
     201.50   3.304275     0.5417E-01  -3.34894   8.37236
     202.50   3.306425     0.4461E-01  -3.43326   8.58316
     203.50   3.308564     0.6123E-01  -3.29575   8.23938
     204.50   3.310693     0.7073E-01  -3.23315   8.08287
     205.50   3.312812     0.7440E-01  -3.21117   8.02793
     206.50   3.314920     0.7473E-01  -3.20927   8.02318
     207.40   3.316809     0.8093E-01  -3.17462   7.93655
     207.80   3.317646     0.2243E+00  -2.73185   6.82962
     208.50   3.319106     0.3041E+00  -2.59974   6.49934
     209.50   3.321184     0.2814E+00  -2.63345   6.58363
     210.50   3.323252     0.2872E+00  -2.62457   6.56143
     211.50   3.325310     0.3466E+00  -2.54294   6.35734
     212.50   3.327359     0.3084E+00  -2.59365   6.48411
     213.50   3.329398     0.3183E+00  -2.57985   6.44964
     214.50   3.331427     0.4219E+00  -2.45755   6.14388
     215.50   3.333447     0.3886E+00  -2.49327   6.23318
     216.50   3.335458     0.3429E+00  -2.54758   6.36894
     217.50   3.337459     0.3339E+00  -2.55917   6.39793
     218.50   3.339452     0.4919E+00  -2.39084   5.97710
     219.50   3.341434     0.4632E+00  -2.41700   6.04249
     220.50   3.343409     0.4771E+00  -2.40415   6.01038
     221.50   3.345374     0.3528E+00  -2.53523   6.33809
     222.50   3.347330     0.4693E+00  -2.41132   6.02831
     223.50   3.349277     0.6941E+00  -2.24133   5.60332
     224.50   3.351216     0.6677E+00  -2.25819   5.64548
     225.50   3.353147     0.4909E+00  -2.39174   5.97934
     226.50   3.355068     0.4026E+00  -2.47792   6.19480
     227.50   3.356982     0.4461E+00  -2.43329   6.08324
     228.50   3.358886     0.7440E+00  -2.21117   5.52792
     229.50   3.360783     0.5685E+00  -2.32798   5.81994
     230.50   3.362671     0.7283E+00  -2.22046   5.55115
     231.50   3.364551     0.6178E+00  -2.29191   5.72978
     232.50   3.366423     0.5510E+00  -2.34163   5.85407
     233.50   3.368287     0.5127E+00  -2.37289   5.93223
     234.50   3.370143     0.3258E+00  -2.56978   6.42445
     235.50   3.371991     0.6388E+00  -2.27740   5.69350
     236.50   3.373831     0.3871E+00  -2.49491   6.23727
     237.50   3.375664     0.5024E+00  -2.38170   5.95424
     238.50   3.377488     0.3189E+00  -2.57904   6.44761
     239.50   3.379306     0.4019E+00  -2.47864   6.19660
     240.50   3.381115     0.4350E+00  -2.44429   6.11072
     241.50   3.382917     0.4585E+00  -2.42139   6.05346
     242.50   3.384712     0.8518E+00  -2.15241   5.38102
     243.50   3.386499     0.9013E+00  -2.12787   5.31967
     244.50   3.388279     0.1136E+01  -2.02754   5.06884
     245.50   3.390052     0.1253E+01  -1.98466   4.96164
     246.50   3.391817     0.9415E+00  -2.10893   5.27231
     247.50   3.393575     0.8201E+00  -2.16888   5.42219
     248.50   3.395326     0.3394E+00  -2.55208   6.38019
     249.50   3.397071     0.5304E+00  -2.35813   5.89531
     250.50   3.398808     0.9261E+00  -2.11610   5.29026
     251.30   3.400192     0.3942E+00  -2.48706   6.21765
     251.80   3.401056     0.2796E+00  -2.63613   6.59033
     252.50   3.402261     0.3236E+00  -2.57274   6.43186
     253.50   3.403978     0.7438E+00  -2.21126   5.52816
     254.50   3.405688     0.7767E+00  -2.19250   5.48126
     255.50   3.407391     0.1987E+01  -1.78450   4.46124
     256.50   3.409087     0.1310E+01  -1.96544   4.91359
     257.50   3.410777     0.1913E+01  -1.80114   4.50284
     258.50   3.412461     0.1648E+01  -1.86576   4.66440
     259.50   3.414137     0.1487E+01  -1.91043   4.77607
     260.50   3.415808     0.1286E+01  -1.97344   4.93361
     261.50   3.417472     0.1140E+01  -2.02597   5.06492
     262.50   3.419129     0.1649E+01  -1.86557   4.66392
     263.50   3.420781     0.3548E+01  -1.53271   3.83178
     264.50   3.422426     0.4719E+01  -1.40892   3.52231
     265.50   3.424065     0.7828E+01  -1.18908   2.97271
     266.50   3.425697     0.4275E+01  -1.45178   3.62945
     267.50   3.427324     0.4856E+01  -1.39644   3.49111
     268.50   3.428944     0.6173E+01  -1.29226   3.23064
     269.50   3.430559     0.3832E+01  -1.49935   3.74838
     270.50   3.432167     0.5287E+01  -1.35956   3.39890
     271.50   3.433770     0.3453E+01  -1.54456   3.86139
     272.50   3.435366     0.2125E+01  -1.75534   4.38834
     273.50   3.436957     0.3158E+01  -1.58333   3.95832
     274.50   3.438542     0.1850E+01  -1.81566   4.53914
     275.50   3.440122     0.2719E+01  -1.64838   4.12095
     276.50   3.441695     0.3819E+01  -1.50074   3.75186
     277.50   3.443263     0.4012E+01  -1.47940   3.69849
     278.50   3.444825     0.2213E+01  -1.73779   4.34446
     279.50   3.446382     0.9921E+00  -2.08617   5.21543
     280.50   3.447933     0.1224E+01  -1.99482   4.98705
     281.50   3.449478     0.3418E+01  -1.54897   3.87242
     282.50   3.451018     0.5031E+01  -1.38107   3.45267
     283.50   3.452553     0.4302E+01  -1.44911   3.62278
     284.50   3.454082     0.2410E+01  -1.70065   4.25161
     285.50   3.455606     0.1169E+01  -2.01487   5.03717
     286.50   3.457125     0.3764E+01  -1.50706   3.76765
     287.50   3.458638     0.6693E+01  -1.25712   3.14280
     288.50   3.460146     0.6377E+01  -1.27812   3.19529
     289.50   3.461648     0.9175E+01  -1.12016   2.80040
     291.00   3.463893     0.1423E+02  -0.92968   2.32419
     293.00   3.466868     0.1348E+02  -0.95319   2.38298
     295.00   3.469822     0.1333E+02  -0.95792   2.39481
     297.00   3.472756     0.1425E+02  -0.92884   2.32210
     299.00   3.475671     0.1559E+02  -0.88983   2.22457
     301.00   3.478566     0.1563E+02  -0.88866   2.22165
     303.00   3.481443     0.1769E+02  -0.83491   2.08728
     305.00   3.484300     0.1819E+02  -0.82292   2.05731
     307.00   3.487138     0.1787E+02  -0.83067   2.07667
     309.00   3.489959     0.1488E+02  -0.91000   2.27499
     311.00   3.492760     0.1901E+02  -0.80376   2.00941
     313.00   3.495544     0.1642E+02  -0.86727   2.16818
     315.00   3.498311     0.1672E+02  -0.85945   2.14862
     317.00   3.501059     0.1977E+02  -0.78675   1.96687
     319.00   3.503791     0.1651E+02  -0.86512   2.16279
     321.00   3.506505     0.1837E+02  -0.81853   2.04632
     323.00   3.509202     0.1569E+02  -0.88713   2.21782
     325.00   3.511883     0.2390E+02  -0.70426   1.76065
     327.00   3.514548     0.2800E+02  -0.63560   1.58900
     329.00   3.517196     0.2752E+02  -0.64306   1.60764
     331.00   3.519828     0.2457E+02  -0.69231   1.73078
     333.00   3.522444     0.2582E+02  -0.67084   1.67710
     335.00   3.525045     0.2489E+02  -0.68677   1.71693
     337.00   3.527630     0.1686E+02  -0.85600   2.13999
     339.00   3.530200     0.2038E+02  -0.77363   1.93408
     341.00   3.532754     0.2167E+02  -0.74686   1.86714
     343.00   3.535294     0.2398E+02  -0.70284   1.75709
     345.00   3.537819     0.2787E+02  -0.63762   1.59406
     347.00   3.540329     0.2946E+02  -0.61344   1.53359
     349.00   3.542825     0.3332E+02  -0.56008   1.40019
     351.00   3.545307     0.3527E+02  -0.53538   1.33846
     353.00   3.547775     0.3080E+02  -0.59412   1.48530
     355.00   3.550228     0.3421E+02  -0.54859   1.37148
     357.00   3.552668     0.2546E+02  -0.67683   1.69208
     359.00   3.555094     0.2753E+02  -0.64301   1.60753
     361.00   3.557507     0.3525E+02  -0.53555   1.33887
     363.00   3.559907     0.3593E+02  -0.52728   1.31821
     364.00   3.561101     0.3540E+02  -0.53376   1.33439
     365.00   3.562293     0.3699E+02  -0.51468   1.28671
     367.00   3.564666     0.4084E+02  -0.47170   1.17926
     369.00   3.567026     0.3526E+02  -0.53548   1.33871
     371.00   3.569374     0.3635E+02  -0.52219   1.30548
     373.00   3.571709     0.2074E+02  -0.76585   1.91462
     375.00   3.574031     0.2439E+02  -0.69549   1.73873
     377.00   3.576341     0.3504E+02  -0.53820   1.34549
     379.00   3.578639     0.3607E+02  -0.52560   1.31399
     381.00   3.580925     0.3223E+02  -0.57451   1.43628
     383.00   3.583199     0.1594E+02  -0.88033   2.20083
     385.00   3.585461     0.2298E+02  -0.72143   1.80356
     387.00   3.587711     0.2270E+02  -0.72670   1.81676
     389.00   3.589950     0.3225E+02  -0.57418   1.43545
     391.00   3.592177     0.4111E+02  -0.46883   1.17207
     393.00   3.594393     0.1830E+02  -0.82033   2.05083
     395.00   3.596597     0.3498E+02  -0.53895   1.34738
     397.00   3.598790     0.2374E+02  -0.70733   1.76834
     399.00   3.600973     0.5730E+02  -0.32462   0.81154
     401.00   3.603144     0.6431E+02  -0.27446   0.68615
     403.00   3.605305     0.6271E+02  -0.28540   0.71350
     405.00   3.607455     0.5980E+02  -0.30606   0.76516
     407.00   3.609594     0.5540E+02  -0.33922   0.84806
     409.00   3.611723     0.7271E+02  -0.22115   0.55286
     411.00   3.613842     0.6769E+02  -0.25224   0.63059
     413.00   3.615950     0.6454E+02  -0.27292   0.68229
     415.00   3.618048     0.6231E+02  -0.28816   0.72040
     417.00   3.620136     0.6388E+02  -0.27739   0.69348
     419.00   3.622214     0.6231E+02  -0.28818   0.72044
     421.00   3.624282     0.6310E+02  -0.28272   0.70679
     423.00   3.626340     0.5838E+02  -0.31645   0.79113
     425.00   3.628389     0.6436E+02  -0.27413   0.68533
     427.00   3.630428     0.6020E+02  -0.30313   0.75783
     429.00   3.632457     0.5619E+02  -0.33307   0.83267
     431.00   3.634477     0.4875E+02  -0.39479   0.98698
     433.00   3.636488     0.7552E+02  -0.20469   0.51172
     435.00   3.638489     0.7634E+02  -0.19999   0.49997
     437.00   3.640481     0.8264E+02  -0.16556   0.41389
     439.00   3.642465     0.7150E+02  -0.22841   0.57102
     441.00   3.644439     0.7647E+02  -0.19924   0.49811
     443.00   3.646404     0.8397E+02  -0.15861   0.39652
     445.00   3.648360     0.8520E+02  -0.15231   0.38077
     447.00   3.650307     0.9249E+02  -0.11666   0.29166
     449.00   3.652246     0.9576E+02  -0.10156   0.25391
     451.00   3.654176     0.1112E+03  -0.03680   0.09200
     453.00   3.656098     0.9529E+02  -0.10368   0.25919
     455.00   3.658011     0.1012E+03  -0.07766   0.19414
     457.00   3.659916     0.1107E+03  -0.03867   0.09667
     459.00   3.661813     0.1035E+03  -0.06766   0.16916
     461.00   3.663701     0.1073E+03  -0.05229   0.13072
     463.00   3.665581     0.1042E+03  -0.06470   0.16175
     465.00   3.667453     0.1057E+03  -0.05855   0.14638
     467.00   3.669317     0.1115E+03  -0.03566   0.08915
     469.00   3.671173     0.1086E+03  -0.04686   0.11714
     471.00   3.673021     0.1063E+03  -0.05615   0.14038
     473.00   3.674861     0.1098E+03  -0.04217   0.10543
     475.00   3.676694     0.1128E+03  -0.03043   0.07608
     477.00   3.678518     0.1097E+03  -0.04265   0.10664
     479.00   3.680336     0.1111E+03  -0.03714   0.09284
     481.00   3.682145     0.1120E+03  -0.03360   0.08399
     483.00   3.683947     0.1164E+03  -0.01695   0.04237
     485.00   3.685742     0.1114E+03  -0.03594   0.08986
     487.00   3.687529     0.1026E+03  -0.07138   0.17846
     489.00   3.689309     0.1132E+03  -0.02894   0.07234
     491.00   3.691082     0.1140E+03  -0.02580   0.06450
     493.00   3.692847     0.1116E+03  -0.03489   0.08722
     495.00   3.694605     0.1162E+03  -0.01741   0.04352
     497.00   3.696356     0.1111E+03  -0.03687   0.09217
     499.00   3.698101     0.1030E+03  -0.06980   0.17449
     501.00   3.699838     0.9637E+02  -0.09880   0.24699
     503.00   3.701568     0.1037E+03  -0.06698   0.16746
     505.00   3.703291     0.1035E+03  -0.06798   0.16994
     507.00   3.705008     0.1083E+03  -0.04818   0.12045
     509.00   3.706718     0.1020E+03  -0.07423   0.18557
     511.00   3.708421     0.1049E+03  -0.06205   0.15512
     513.00   3.710117     0.1015E+03  -0.07639   0.19099
     515.00   3.711807     0.9748E+02  -0.09383   0.23456
     517.00   3.713490     0.8577E+02  -0.14939   0.37348
     519.00   3.715167     0.9039E+02  -0.12661   0.31653
     521.00   3.716838     0.1004E+03  -0.08118   0.20296
     523.00   3.718502     0.1123E+03  -0.03218   0.08046
     525.00   3.720159     0.1185E+03  -0.00903   0.02258
     527.00   3.721811     0.1022E+03  -0.07326   0.18316
     529.00   3.723456     0.1215E+03   0.00170  -0.00425
     531.00   3.725095     0.1304E+03   0.03250  -0.08125
     533.00   3.726727     0.1127E+03  -0.03082   0.07705
     535.00   3.728354     0.1258E+03   0.01686  -0.04216
     537.00   3.729974     0.1244E+03   0.01208  -0.03020
     539.00   3.731589     0.1216E+03   0.00222  -0.00554
     541.00   3.733197     0.1198E+03  -0.00426   0.01065
     543.00   3.734800     0.1218E+03   0.00293  -0.00732
     545.00   3.736397     0.1242E+03   0.01128  -0.02820
     547.00   3.737987     0.1213E+03   0.00127  -0.00318
     549.00   3.739572     0.1235E+03   0.00895  -0.02236
     551.00   3.741152     0.1210E+03   0.00000   0.00000
     553.00   3.742725     0.1266E+03   0.01957  -0.04892
     555.00   3.744293     0.1291E+03   0.02831  -0.07077
     557.00   3.745855     0.1263E+03   0.01854  -0.04636
     559.00   3.747412     0.1225E+03   0.00537  -0.01342
     561.00   3.748963     0.1271E+03   0.02131  -0.05328
     563.00   3.750508     0.1265E+03   0.01923  -0.04807
     565.00   3.752048     0.1292E+03   0.02859  -0.07147
     567.00   3.753583     0.1261E+03   0.01782  -0.04456
     569.00   3.755112     0.1306E+03   0.03322  -0.08304
     571.00   3.756636     0.1262E+03   0.01825  -0.04563
     573.00   3.758155     0.1379E+03   0.05675  -0.14187
     575.00   3.759668     0.1331E+03   0.04147  -0.10367
     577.00   3.761176     0.1348E+03   0.04691  -0.11727
     579.00   3.762679     0.1293E+03   0.02884  -0.07209
     581.00   3.764176     0.1352E+03   0.04820  -0.12051
     583.00   3.765669     0.1389E+03   0.06002  -0.15005
     585.00   3.767156     0.1333E+03   0.04224  -0.10559
     587.00   3.768638     0.1330E+03   0.04097  -0.10243
     589.00   3.770115     0.1193E+03  -0.00600   0.01500
     591.00   3.771587     0.1308E+03   0.03399  -0.08497
     593.00   3.773055     0.1316E+03   0.03662  -0.09156
     595.00   3.774517     0.1321E+03   0.03804  -0.09510
     597.00   3.775974     0.1351E+03   0.04785  -0.11962
     599.00   3.777427     0.1332E+03   0.04185  -0.10463
     601.00   3.778874     0.1317E+03   0.03682  -0.09205
     603.00   3.780317     0.1359E+03   0.05036  -0.12591
     605.00   3.781755     0.1388E+03   0.05978  -0.14945
     607.00   3.783189     0.1385E+03   0.05859  -0.14648
     609.00   3.784617     0.1337E+03   0.04353  -0.10882
     611.00   3.786041     0.1348E+03   0.04699  -0.11749
     613.00   3.787461     0.1273E+03   0.02216  -0.05541
     615.00   3.788875     0.1308E+03   0.03387  -0.08467
     617.00   3.790285     0.1212E+03   0.00090  -0.00225
     619.00   3.791691     0.1290E+03   0.02785  -0.06963
     621.00   3.793092     0.1274E+03   0.02251  -0.05626
     623.00   3.794488     0.1232E+03   0.00795  -0.01988
     625.00   3.795880     0.1198E+03  -0.00418   0.01046
     627.00   3.797267     0.1262E+03   0.01826  -0.04564
     629.00   3.798651     0.1297E+03   0.03004  -0.07510
     631.00   3.800029     0.1272E+03   0.02182  -0.05455
     633.00   3.801404     0.1299E+03   0.03074  -0.07686
     635.00   3.802774     0.1310E+03   0.03469  -0.08673
     637.00   3.804139     0.1310E+03   0.03445  -0.08613
     639.00   3.805501     0.1338E+03   0.04386  -0.10964
     641.00   3.806858     0.1313E+03   0.03555  -0.08888
     643.00   3.808211     0.1329E+03   0.04077  -0.10193
     645.00   3.809560     0.1324E+03   0.03921  -0.09802
     647.00   3.810904     0.1323E+03   0.03884  -0.09710
     649.00   3.812245     0.1300E+03   0.03124  -0.07810
     651.00   3.813581     0.1353E+03   0.04853  -0.12132
     653.00   3.814913     0.1362E+03   0.05132  -0.12831
     655.00   3.816241     0.1332E+03   0.04163  -0.10409
     657.00   3.817565     0.1274E+03   0.02233  -0.05583
     659.00   3.818885     0.1327E+03   0.03999  -0.09998
     661.00   3.820201     0.1338E+03   0.04361  -0.10902
     663.00   3.821513     0.1316E+03   0.03665  -0.09162
     665.00   3.822822     0.1302E+03   0.03199  -0.07997
     667.00   3.824126     0.1264E+03   0.01896  -0.04740
     669.00   3.825426     0.1273E+03   0.02213  -0.05533
     671.00   3.826723     0.1213E+03   0.00105  -0.00262
     673.00   3.828015     0.1242E+03   0.01140  -0.02849
     675.00   3.829304     0.1219E+03   0.00321  -0.00803
     677.00   3.830589     0.1227E+03   0.00613  -0.01531
     679.00   3.831870     0.1215E+03   0.00169  -0.00424
     681.00   3.833147     0.1225E+03   0.00545  -0.01362
     683.00   3.834421     0.1247E+03   0.01326  -0.03315
     685.00   3.835690     0.1219E+03   0.00326  -0.00816
     687.00   3.836957     0.1244E+03   0.01225  -0.03062
     689.00   3.838219     0.1274E+03   0.02259  -0.05646
     691.00   3.839478     0.1288E+03   0.02715  -0.06788
     693.00   3.840733     0.1285E+03   0.02622  -0.06556
     695.00   3.841985     0.1294E+03   0.02918  -0.07295
     697.00   3.843233     0.1326E+03   0.03989  -0.09973
     699.00   3.844477     0.1335E+03   0.04261  -0.10654
     701.00   3.845718     0.1332E+03   0.04179  -0.10449
     703.00   3.846955     0.1346E+03   0.04637  -0.11592
     705.00   3.848189     0.1317E+03   0.03678  -0.09194
     707.00   3.849419     0.1242E+03   0.01142  -0.02856
     709.00   3.850646     0.1173E+03  -0.01338   0.03345
     711.00   3.851870     0.1131E+03  -0.02919   0.07296
     713.00   3.853090     0.1099E+03  -0.04194   0.10484
     715.00   3.854306     0.1095E+03  -0.04337   0.10844
     717.00   3.855519     0.1116E+03  -0.03515   0.08787
     719.00   3.856729     0.1095E+03  -0.04317   0.10793
     721.00   3.857935     0.1132E+03  -0.02905   0.07262
     723.00   3.859138     0.1172E+03  -0.01369   0.03422
     725.00   3.860338     0.1192E+03  -0.00630   0.01576
     727.00   3.861534     0.1213E+03   0.00121  -0.00302
     729.00   3.862728     0.1220E+03   0.00379  -0.00946
     731.00   3.863917     0.1284E+03   0.02596  -0.06490
     733.00   3.865104     0.1288E+03   0.02733  -0.06833
     735.00   3.866287     0.1335E+03   0.04263  -0.10658
     737.00   3.867467     0.1388E+03   0.05964  -0.14910
     739.00   3.868644     0.1363E+03   0.05162  -0.12904
     741.00   3.869818     0.1390E+03   0.06036  -0.15091
     743.00   3.870989     0.1433E+03   0.07360  -0.18401
     745.00   3.872156     0.1426E+03   0.07150  -0.17874
     747.00   3.873321     0.1480E+03   0.08766  -0.21914
     749.00   3.874482     0.1476E+03   0.08632  -0.21581
     751.00   3.875640     0.1487E+03   0.08948  -0.22370
     753.00   3.876795     0.1519E+03   0.09895  -0.24738
     755.00   3.877947     0.1534E+03   0.10310  -0.25775
     757.00   3.879096     0.1534E+03   0.10319  -0.25798
     759.00   3.880242     0.1470E+03   0.08448  -0.21120
     761.00   3.881385     0.1408E+03   0.06591  -0.16479
     763.00   3.882524     0.1342E+03   0.04512  -0.11279
     765.00   3.883662     0.1271E+03   0.02151  -0.05377
     767.00   3.884795     0.1190E+03  -0.00718   0.01795
     769.00   3.885926     0.1215E+03   0.00169  -0.00422
     771.00   3.887054     0.1192E+03  -0.00646   0.01615
     773.00   3.888180     0.1196E+03  -0.00514   0.01285
     775.00   3.889302     0.1187E+03  -0.00841   0.02103
     777.00   3.890421     0.1208E+03  -0.00068   0.00169
     779.00   3.891537     0.1214E+03   0.00133  -0.00332
     781.00   3.892651     0.1220E+03   0.00366  -0.00916
     783.00   3.893762     0.1221E+03   0.00411  -0.01027
     785.00   3.894870     0.1207E+03  -0.00092   0.00229
     787.00   3.895975     0.1235E+03   0.00885  -0.02212
     789.00   3.897077     0.1235E+03   0.00882  -0.02206
     791.00   3.898176     0.1201E+03  -0.00302   0.00756
     793.00   3.899273     0.1217E+03   0.00259  -0.00649
     795.00   3.900367     0.1220E+03   0.00348  -0.00871
     797.00   3.901458     0.1257E+03   0.01654  -0.04135
     799.00   3.902547     0.1261E+03   0.01787  -0.04468
     801.00   3.903632     0.1296E+03   0.02978  -0.07445
     803.00   3.904716     0.1310E+03   0.03453  -0.08633
     805.00   3.905796     0.1309E+03   0.03419  -0.08546
     807.00   3.906873     0.1357E+03   0.04970  -0.12424
     809.00   3.907948     0.1354E+03   0.04876  -0.12191
     811.00   3.909021     0.1373E+03   0.05483  -0.13707
     813.00   3.910090     0.1425E+03   0.07110  -0.17776
     815.00   3.911158     0.1453E+03   0.07954  -0.19885
     817.00   3.912222     0.1464E+03   0.08294  -0.20736
     819.00   3.913284     0.1437E+03   0.07485  -0.18711
     821.00   3.914343     0.1373E+03   0.05499  -0.13747
     823.00   3.915400     0.1377E+03   0.05616  -0.14041
     825.00   3.916454     0.1371E+03   0.05440  -0.13601
     827.00   3.917506     0.1377E+03   0.05615  -0.14039
     829.00   3.918555     0.1359E+03   0.05037  -0.12593
     831.00   3.919601     0.1316E+03   0.03658  -0.09146
     833.00   3.920645     0.1304E+03   0.03255  -0.08137
     835.00   3.921686     0.1299E+03   0.03086  -0.07714
     837.00   3.922725     0.1308E+03   0.03384  -0.08459
     839.00   3.923762     0.1272E+03   0.02163  -0.05408
     841.00   3.924796     0.1310E+03   0.03461  -0.08653
     843.00   3.925828     0.1266E+03   0.01956  -0.04889
     845.00   3.926857     0.1197E+03  -0.00458   0.01145
     847.00   3.927883     0.1191E+03  -0.00677   0.01693
     849.00   3.928908     0.1217E+03   0.00257  -0.00644
     851.00   3.929929     0.1165E+03  -0.01641   0.04104
     853.00   3.930949     0.1214E+03   0.00142  -0.00356
     855.00   3.931966     0.1185E+03  -0.00895   0.02238
     857.00   3.932981     0.1257E+03   0.01662  -0.04154
     859.00   3.933993     0.1247E+03   0.01321  -0.03301
     861.00   3.935003     0.1273E+03   0.02200  -0.05499
     863.00   3.936011     0.1302E+03   0.03200  -0.08001
     865.00   3.937016     0.1315E+03   0.03630  -0.09074
     867.00   3.938019     0.1245E+03   0.01226  -0.03065
     869.00   3.939020     0.1302E+03   0.03196  -0.07991
     871.00   3.940018     0.1345E+03   0.04608  -0.11520
     873.00   3.941014     0.1358E+03   0.05026  -0.12566
     875.00   3.942008     0.1353E+03   0.04861  -0.12151
     877.00   3.943000     0.1368E+03   0.05346  -0.13365
     879.00   3.943989     0.1403E+03   0.06442  -0.16105
     881.00   3.944976     0.1384E+03   0.05827  -0.14567
     883.00   3.945961     0.1401E+03   0.06363  -0.15907
     885.00   3.946943     0.1369E+03   0.05374  -0.13435
     887.00   3.947924     0.1305E+03   0.03292  -0.08230
     889.00   3.948902     0.1307E+03   0.03348  -0.08370
     891.00   3.949878     0.1324E+03   0.03919  -0.09796
     893.00   3.950851     0.1309E+03   0.03405  -0.08512
     895.00   3.951823     0.1316E+03   0.03665  -0.09162
     897.00   3.952792     0.1321E+03   0.03825  -0.09563
     899.00   3.953760     0.1325E+03   0.03951  -0.09877
     901.00   3.954725     0.1301E+03   0.03152  -0.07879
     903.00   3.955688     0.1355E+03   0.04917  -0.12293
     905.00   3.956649     0.1400E+03   0.06334  -0.15834
     907.00   3.957607     0.1409E+03   0.06618  -0.16544
     909.00   3.958564     0.1395E+03   0.06176  -0.15441
     911.00   3.959518     0.1412E+03   0.06723  -0.16807
     913.00   3.960471     0.1431E+03   0.07296  -0.18241
     915.00   3.961421     0.1424E+03   0.07064  -0.17660
     917.00   3.962369     0.1422E+03   0.07028  -0.17569
     919.00   3.963315     0.1433E+03   0.07358  -0.18395
     921.00   3.964260     0.1377E+03   0.05627  -0.14066
     923.00   3.965202     0.1361E+03   0.05124  -0.12810
     925.00   3.966142     0.1342E+03   0.04505  -0.11262
     927.00   3.967080     0.1362E+03   0.05136  -0.12841
     929.00   3.968016     0.1326E+03   0.03980  -0.09951
     931.00   3.968950     0.1332E+03   0.04173  -0.10432
     933.00   3.969882     0.1342E+03   0.04510  -0.11275
     935.00   3.970812     0.1341E+03   0.04467  -0.11168
     937.00   3.971740     0.1312E+03   0.03517  -0.08793
     939.00   3.972666     0.1344E+03   0.04559  -0.11399
     941.00   3.973590     0.1329E+03   0.04085  -0.10212
     943.00   3.974512     0.1353E+03   0.04856  -0.12141
     945.00   3.975432     0.1340E+03   0.04443  -0.11108
     947.00   3.976350     0.1371E+03   0.05417  -0.13543
     949.00   3.977266     0.1376E+03   0.05579  -0.13947
     951.00   3.978180     0.1341E+03   0.04471  -0.11177
     953.00   3.979093     0.1360E+03   0.05080  -0.12700
     955.00   3.980003     0.1347E+03   0.04673  -0.11682
     957.00   3.980912     0.1359E+03   0.05060  -0.12649
     959.00   3.981819     0.1377E+03   0.05611  -0.14027
     961.00   3.982723     0.1363E+03   0.05185  -0.12961
     963.00   3.983626     0.1376E+03   0.05575  -0.13937
     965.00   3.984527     0.1357E+03   0.04990  -0.12476
     967.00   3.985426     0.1361E+03   0.05122  -0.12806
     969.00   3.986324     0.1375E+03   0.05552  -0.13881
     971.00   3.987219     0.1355E+03   0.04914  -0.12286
     973.00   3.988113     0.1341E+03   0.04482  -0.11206
     975.00   3.989005     0.1340E+03   0.04423  -0.11058
     977.00   3.989895     0.1344E+03   0.04582  -0.11454
     979.00   3.990783     0.1332E+03   0.04162  -0.10405
     981.00   3.991669     0.1358E+03   0.05016  -0.12541
     983.00   3.992553     0.1347E+03   0.04672  -0.11679
     985.00   3.993436     0.1354E+03   0.04880  -0.12201
     987.00   3.994317     0.1345E+03   0.04599  -0.11497
     989.00   3.995196     0.1343E+03   0.04528  -0.11319
     991.00   3.996074     0.1341E+03   0.04474  -0.11185
     993.00   3.996949     0.1347E+03   0.04670  -0.11675
     995.00   3.997823     0.1351E+03   0.04805  -0.12012
     997.00   3.998695     0.1352E+03   0.04828  -0.12069
     999.00   3.999566     0.1349E+03   0.04720  -0.11800
    1003.00   4.001301     0.1350E+03   0.04754  -0.11886
    1008.00   4.003461     0.1343E+03   0.04534  -0.11335
    1013.00   4.005610     0.1357E+03   0.04984  -0.12461
    1018.00   4.007748     0.1344E+03   0.04553  -0.11382
    1023.00   4.009875     0.1347E+03   0.04675  -0.11688
    1028.00   4.011993     0.1349E+03   0.04724  -0.11811
    1033.00   4.014100     0.1337E+03   0.04342  -0.10855
    1038.00   4.016197     0.1331E+03   0.04142  -0.10356
    1043.00   4.018284     0.1336E+03   0.04322  -0.10804
    1048.00   4.020361     0.1329E+03   0.04070  -0.10176
    1053.00   4.022429     0.1318E+03   0.03728  -0.09319
    1058.00   4.024486     0.1299E+03   0.03078  -0.07695
    1063.00   4.026533     0.1292E+03   0.02861  -0.07153
    1068.00   4.028571     0.1285E+03   0.02617  -0.06542
    1073.00   4.030600     0.1290E+03   0.02780  -0.06950
    1078.00   4.032619     0.1281E+03   0.02492  -0.06230
    1083.00   4.034628     0.1266E+03   0.01954  -0.04884
    1088.00   4.036629     0.1259E+03   0.01712  -0.04279
    1093.00   4.038620     0.1254E+03   0.01571  -0.03927
    1098.00   4.040603     0.1237E+03   0.00952  -0.02380
    1103.00   4.042576     0.1231E+03   0.00764  -0.01910
    1108.00   4.044539     0.1210E+03   0.00020  -0.00049
    1113.00   4.046495     0.1211E+03   0.00042  -0.00104
    1118.00   4.048442     0.1205E+03  -0.00163   0.00407
    1123.00   4.050380     0.1207E+03  -0.00109   0.00273
    1128.00   4.052309     0.1202E+03  -0.00293   0.00732
    1133.00   4.054230     0.1202E+03  -0.00298   0.00745
    1138.00   4.056142     0.1197E+03  -0.00465   0.01163
    1143.00   4.058046     0.1190E+03  -0.00716   0.01791
    1148.00   4.059942     0.1198E+03  -0.00416   0.01040
    1153.00   4.061830     0.1198E+03  -0.00432   0.01080
    1158.00   4.063708     0.1189E+03  -0.00757   0.01892
    1163.00   4.065579     0.1178E+03  -0.01147   0.02867
    1168.00   4.067443     0.1178E+03  -0.01149   0.02873
    1173.00   4.069298     0.1180E+03  -0.01069   0.02673
    1178.00   4.071145     0.1164E+03  -0.01672   0.04180
    1183.00   4.072985     0.1155E+03  -0.02020   0.05049
    1188.00   4.074817     0.1144E+03  -0.02433   0.06082
    1193.00   4.076640     0.1156E+03  -0.01962   0.04905
    1198.00   4.078457     0.1132E+03  -0.02900   0.07249
    1203.00   4.080266     0.1146E+03  -0.02343   0.05859
    1208.00   4.082067     0.1139E+03  -0.02607   0.06517
    1213.00   4.083861     0.1140E+03  -0.02569   0.06423
    1218.00   4.085648     0.1141E+03  -0.02541   0.06352
    1223.00   4.087426     0.1136E+03  -0.02745   0.06863
    1228.00   4.089198     0.1130E+03  -0.02971   0.07428
    1233.00   4.090963     0.1125E+03  -0.03169   0.07923
    1238.00   4.092721     0.1122E+03  -0.03280   0.08201
    1243.00   4.094471     0.1108E+03  -0.03812   0.09529
    1248.00   4.096214     0.1109E+03  -0.03781   0.09453
    1253.00   4.097951     0.1102E+03  -0.04053   0.10132
    1258.00   4.099681     0.1097E+03  -0.04243   0.10607
    1263.00   4.101403     0.1094E+03  -0.04358   0.10896
    1268.00   4.103119     0.1088E+03  -0.04607   0.11518
    1273.00   4.104828     0.1087E+03  -0.04649   0.11622
    1278.00   4.106531     0.1088E+03  -0.04625   0.11563
    1283.00   4.108227     0.1065E+03  -0.05552   0.13879
    1288.00   4.109916     0.1074E+03  -0.05183   0.12958
    1293.00   4.111598     0.1066E+03  -0.05514   0.13784
    1298.00   4.113275     0.1072E+03  -0.05263   0.13156
    1303.00   4.114944     0.1062E+03  -0.05643   0.14108
    1308.00   4.116608     0.1063E+03  -0.05637   0.14092
    1313.00   4.118265     0.1046E+03  -0.06306   0.15766
    1318.00   4.119915     0.1042E+03  -0.06474   0.16185
    1323.00   4.121560     0.1041E+03  -0.06518   0.16295
    1328.00   4.123198     0.1028E+03  -0.07087   0.17718
    1333.00   4.124830     0.1028E+03  -0.07077   0.17693
    1338.00   4.126456     0.1020E+03  -0.07427   0.18567
    1343.00   4.128076     0.1019E+03  -0.07440   0.18601
    1348.00   4.129690     0.1012E+03  -0.07761   0.19403
    1353.00   4.131298     0.1006E+03  -0.07996   0.19990
    1358.00   4.132900     0.9939E+02  -0.08540   0.21349
    1363.00   4.134496     0.9922E+02  -0.08615   0.21538
    1368.00   4.136086     0.9983E+02  -0.08347   0.20867
    1373.00   4.137671     0.1003E+03  -0.08123   0.20309
    1378.00   4.139249     0.1004E+03  -0.08110   0.20274
    1383.00   4.140822     0.1004E+03  -0.08111   0.20276
    1388.00   4.142389     0.9950E+02  -0.08492   0.21230
    1393.00   4.143951     0.9117E+02  -0.12288   0.30719
    1398.00   4.145507     0.9185E+02  -0.11967   0.29918
    1403.00   4.147058     0.9134E+02  -0.12206   0.30514
    1408.00   4.148602     0.9197E+02  -0.11908   0.29771
    1413.00   4.150142     0.9143E+02  -0.12167   0.30418
    1418.00   4.151676     0.9204E+02  -0.11874   0.29686
    1423.00   4.153205     0.9156E+02  -0.12105   0.30263
    1428.00   4.154728     0.9092E+02  -0.12410   0.31026
    1433.00   4.156246     0.9245E+02  -0.11682   0.29205
    1438.00   4.157759     0.9297E+02  -0.11439   0.28597
    1443.00   4.159266     0.9179E+02  -0.11996   0.29991
    1448.00   4.160769     0.9315E+02  -0.11358   0.28395
    1453.00   4.162266     0.9267E+02  -0.11581   0.28953
    1457.00   4.163460     0.9313E+02  -0.11367   0.28417
    1462.00   4.164948     0.8874E+02  -0.13462   0.33656
    1468.00   4.166726     0.8941E+02  -0.13137   0.32841
    1473.00   4.168202     0.8912E+02  -0.13275   0.33188
    1478.00   4.169674     0.8992E+02  -0.12887   0.32218
    1483.00   4.171141     0.9051E+02  -0.12605   0.31513
    1488.00   4.172603     0.9024E+02  -0.12736   0.31839
    1493.00   4.174060     0.9208E+02  -0.11858   0.29645
    1498.00   4.175512     0.9192E+02  -0.11931   0.29828
    1503.00   4.176959     0.9125E+02  -0.12251   0.30627
    1508.00   4.178401     0.9176E+02  -0.12008   0.30021
    1513.00   4.179839     0.9320E+02  -0.11330   0.28326
    1518.00   4.181272     0.9365E+02  -0.11122   0.27805
    1523.00   4.182700     0.9379E+02  -0.11056   0.27641
    1528.00   4.184123     0.9444E+02  -0.10757   0.26891
    1533.00   4.185542     0.9437E+02  -0.10789   0.26973
    1538.00   4.186956     0.9217E+02  -0.11817   0.29542
    1543.00   4.188366     0.9322E+02  -0.11321   0.28302
    1548.00   4.189771     0.9364E+02  -0.11128   0.27819
    1553.00   4.191172     0.9342E+02  -0.11230   0.28075
    1558.00   4.192567     0.9048E+02  -0.12619   0.31548
    1563.00   4.193959     0.9154E+02  -0.12114   0.30284
    1568.00   4.195346     0.9177E+02  -0.12004   0.30010
    1573.00   4.196729     0.9347E+02  -0.11205   0.28014
    1578.00   4.198107     0.8514E+02  -0.15258   0.38146
    1583.00   4.199481     0.8834E+02  -0.13659   0.34148
    1588.00   4.200850     0.8914E+02  -0.13267   0.33168
    1593.00   4.202216     0.9163E+02  -0.12071   0.30179
    1598.00   4.203577     0.9386E+02  -0.11027   0.27567
    1605.00   4.205475     0.8879E+02  -0.13439   0.33598
    1615.00   4.208173     0.9183E+02  -0.11976   0.29939
    1625.00   4.210854     0.8776E+02  -0.13943   0.34856
    1635.00   4.213518     0.9115E+02  -0.12299   0.30749
    1645.00   4.216166     0.8756E+02  -0.14042   0.35105
    1655.00   4.218798     0.8928E+02  -0.13196   0.32991
    1665.00   4.221415     0.8652E+02  -0.14563   0.36407
    1675.00   4.224015     0.8732E+02  -0.14162   0.35406
    1685.00   4.226600     0.8754E+02  -0.14052   0.35131
    1695.00   4.229170     0.8548E+02  -0.15090   0.37725
    1705.00   4.231725     0.8440E+02  -0.15639   0.39098
    1715.00   4.234264     0.8256E+02  -0.16600   0.41499
    1725.00   4.236789     0.8107E+02  -0.17386   0.43465
    1735.00   4.239300     0.7870E+02  -0.18674   0.46686
    1745.00   4.241796     0.7756E+02  -0.19310   0.48275
    1755.00   4.244277     0.7653E+02  -0.19889   0.49723
    1765.00   4.246745     0.7462E+02  -0.20986   0.52465
    1775.00   4.249198     0.7290E+02  -0.22003   0.55007
    1785.00   4.251638     0.7178E+02  -0.22677   0.56691
    1795.00   4.254065     0.7005E+02  -0.23735   0.59337
    1805.00   4.256477     0.6853E+02  -0.24689   0.61722
    1815.00   4.258877     0.6732E+02  -0.25458   0.63646
    1825.00   4.261263     0.6634E+02  -0.26098   0.65246
    1835.00   4.263636     0.6537E+02  -0.26737   0.66843
    1845.00   4.265996     0.6415E+02  -0.27557   0.68893
    1855.00   4.268344     0.6347E+02  -0.28016   0.70041
    1865.00   4.270679     0.6207E+02  -0.28984   0.72459
    1875.00   4.273001     0.6084E+02  -0.29855   0.74638
    1885.00   4.275311     0.6017E+02  -0.30337   0.75841
    1895.00   4.277609     0.5829E+02  -0.31715   0.79287
    1905.00   4.279895     0.5810E+02  -0.31855   0.79638
    1915.00   4.282169     0.5690E+02  -0.32765   0.81913
    1925.00   4.284431     0.5589E+02  -0.33539   0.83847
    1935.00   4.286681     0.5445E+02  -0.34675   0.86687
    1945.00   4.288919     0.5318E+02  -0.35703   0.89257
    1955.00   4.291147     0.5260E+02  -0.36176   0.90439
    1965.00   4.293363     0.5155E+02  -0.37055   0.92636
    1975.00   4.295567     0.5028E+02  -0.38136   0.95339
    1985.00   4.297760     0.4952E+02  -0.38799   0.96997
    1995.00   4.299943     0.4886E+02  -0.39375   0.98437
    2005.00   4.302114     0.4843E+02  -0.39761   0.99402
    2015.00   4.304275     0.4776E+02  -0.40367   1.00918
    2025.00   4.306425     0.4676E+02  -0.41286   1.03215
    2035.00   4.308564     0.4616E+02  -0.41850   1.04625
    2045.00   4.310693     0.4586E+02  -0.42135   1.05337
    2055.00   4.312812     0.4517E+02  -0.42792   1.06979
    2065.00   4.314920     0.4448E+02  -0.43457   1.08642
    2075.00   4.317018     0.4398E+02  -0.43945   1.09862
    2085.00   4.319106     0.4338E+02  -0.44542   1.11355
    2095.00   4.321184     0.4268E+02  -0.45250   1.13125
    2105.00   4.323252     0.4236E+02  -0.45583   1.13957
    2115.00   4.325311     0.4169E+02  -0.46270   1.15676
    2125.00   4.327359     0.4110E+02  -0.46885   1.17213
    2135.00   4.329398     0.4068E+02  -0.47336   1.18340
    2145.00   4.331428     0.4009E+02  -0.47970   1.19925
    2155.00   4.333447     0.3951E+02  -0.48604   1.21509
    2165.00   4.335458     0.3882E+02  -0.49372   1.23430
    2175.00   4.337460     0.3828E+02  -0.49978   1.24944
    2185.00   4.339452     0.3781E+02  -0.50519   1.26297
    2195.00   4.341434     0.3732E+02  -0.51080   1.27700
    2205.00   4.343409     0.3651E+02  -0.52030   1.30075
    2215.00   4.345374     0.3628E+02  -0.52302   1.30755
    2225.00   4.347330     0.3551E+02  -0.53233   1.33082
    2235.00   4.349277     0.3504E+02  -0.53811   1.34529
    2245.00   4.351216     0.3454E+02  -0.54446   1.36115
    2255.00   4.353147     0.3408E+02  -0.55020   1.37549
    2265.00   4.355068     0.3342E+02  -0.55867   1.39668
    2275.00   4.356981     0.3311E+02  -0.56272   1.40680
    2285.00   4.358886     0.3248E+02  -0.57116   1.42790
    2295.00   4.360783     0.2585E+02  -0.67021   1.67551
    2305.00   4.362671     0.2881E+02  -0.62317   1.55793
    2315.00   4.364551     0.2875E+02  -0.62405   1.56012
    2325.00   4.366423     0.2406E+02  -0.70150   1.75376
    2335.00   4.368287     0.2642E+02  -0.66081   1.65202
    2345.00   4.370143     0.2409E+02  -0.70095   1.75238
    2355.00   4.371991     0.2236E+02  -0.73336   1.83340
    2365.00   4.373831     0.2431E+02  -0.69689   1.74222
    2375.00   4.375664     0.2258E+02  -0.72898   1.82245
    2385.00   4.377488     0.2103E+02  -0.75984   1.89960
    2395.00   4.379306     0.2252E+02  -0.73009   1.82521
    2405.00   4.381115     0.2148E+02  -0.75065   1.87661
    2415.00   4.382917     0.1977E+02  -0.78664   1.96660
    2425.00   4.384712     0.2097E+02  -0.76110   1.90275
    2435.00   4.386499     0.1985E+02  -0.78492   1.96230
    2445.00   4.388279     0.1994E+02  -0.78299   1.95747
    2455.00   4.390052     0.1913E+02  -0.80098   2.00244
    2465.00   4.391817     0.1898E+02  -0.80446   2.01115
    2475.00   4.393575     0.1842E+02  -0.81757   2.04391
    2485.00   4.395327     0.1592E+02  -0.88093   2.20232
    2495.00   4.397071     0.1507E+02  -0.90468   2.26170
    2505.00   4.398808     0.1530E+02  -0.89817   2.24542
    2515.00   4.400538     0.1464E+02  -0.91717   2.29292
    2525.00   4.402262     0.1498E+02  -0.90714   2.26786
    2535.00   4.403978     0.1503E+02  -0.90585   2.26461
    2545.00   4.405688     0.1490E+02  -0.90967   2.27417
    2555.00   4.407391     0.1492E+02  -0.90901   2.27253
    2565.00   4.409087     0.1508E+02  -0.90440   2.26101
    2575.00   4.410777     0.1524E+02  -0.89974   2.24935
    2585.00   4.412460     0.1496E+02  -0.90793   2.26981
    2595.00   4.414137     0.1502E+02  -0.90615   2.26536
    2605.00   4.415808     0.1502E+02  -0.90596   2.26489
    2615.00   4.417472     0.1482E+02  -0.91202   2.28005
    2625.00   4.419129     0.1462E+02  -0.91772   2.29431
    2635.00   4.420781     0.1462E+02  -0.91784   2.29461
    2645.00   4.422426     0.1450E+02  -0.92133   2.30332
    2655.00   4.424065     0.1434E+02  -0.92614   2.31535
    2665.00   4.425697     0.1414E+02  -0.93228   2.33069
    2675.00   4.427324     0.1425E+02  -0.92891   2.32229
    2685.00   4.428945     0.1411E+02  -0.93320   2.33301
    2695.00   4.430559     0.1389E+02  -0.94019   2.35047
    2705.00   4.432167     0.1386E+02  -0.94085   2.35213
    2715.00   4.433770     0.1375E+02  -0.94447   2.36116
    2725.00   4.435367     0.1367E+02  -0.94705   2.36761
    2735.00   4.436957     0.1347E+02  -0.95340   2.38349
    2745.00   4.438542     0.1343E+02  -0.95459   2.38647
    2755.00   4.440122     0.1335E+02  -0.95725   2.39312
    2765.00   4.441695     0.1320E+02  -0.96230   2.40575
    2775.00   4.443263     0.1304E+02  -0.96742   2.41854
    2785.00   4.444825     0.1299E+02  -0.96926   2.42316
    2795.00   4.446382     0.1292E+02  -0.97133   2.42832
    2805.00   4.447933     0.1280E+02  -0.97558   2.43894
    2815.00   4.449478     0.1265E+02  -0.98063   2.45158
    2825.00   4.451018     0.1256E+02  -0.98366   2.45916
    2835.00   4.452553     0.1249E+02  -0.98627   2.46566
    2845.00   4.454082     0.1235E+02  -0.99094   2.47734
    2855.00   4.455606     0.1224E+02  -0.99492   2.48729
    2865.00   4.457125     0.1214E+02  -0.99863   2.49658
    2875.00   4.458638     0.1203E+02  -1.00243   2.50608
    2885.00   4.460146     0.1193E+02  -1.00612   2.51529
    2895.00   4.461648     0.1183E+02  -1.00990   2.52475
    2905.00   4.463146     0.1171E+02  -1.01406   2.53515
    2915.00   4.464639     0.1162E+02  -1.01755   2.54388
    2925.00   4.466126     0.1146E+02  -1.02363   2.55908
    2935.00   4.467608     0.1141E+02  -1.02531   2.56327
    2945.00   4.469085     0.1129E+02  -1.02994   2.57486
    2955.00   4.470557     0.1120E+02  -1.03363   2.58409
    2965.00   4.472025     0.1111E+02  -1.03685   2.59212
    2975.00   4.473487     0.1102E+02  -1.04070   2.60175
    2985.00   4.474944     0.1090E+02  -1.04519   2.61297
    2995.00   4.476397     0.1080E+02  -1.04936   2.62340
    3005.00   4.477844     0.1071E+02  -1.05278   2.63194
    3015.00   4.479287     0.1066E+02  -1.05509   2.63773
    3025.00   4.480725     0.1057E+02  -1.05884   2.64709
    3035.00   4.482159     0.1048E+02  -1.06253   2.65632
    3045.00   4.483587     0.1043E+02  -1.06442   2.66106
    3055.00   4.485011     0.1035E+02  -1.06790   2.66976
    3065.00   4.486430     0.1027E+02  -1.07115   2.67787
    3075.00   4.487845     0.1021E+02  -1.07360   2.68401
    3085.00   4.489255     0.1012E+02  -1.07770   2.69424
    3095.00   4.490661     0.1006E+02  -1.08019   2.70048
    3105.00   4.492062     0.1000E+02  -1.08266   2.70666
    3115.00   4.493458     0.9884E+01  -1.08783   2.71957
    3125.00   4.494850     0.9837E+01  -1.08988   2.72469
    3135.00   4.496238     0.9762E+01  -1.09320   2.73299
    3145.00   4.497621     0.9682E+01  -1.09676   2.74190
    3155.00   4.499000     0.9593E+01  -1.10077   2.75192
    3165.00   4.500374     0.9509E+01  -1.10462   2.76155
    3175.00   4.501744     0.9447E+01  -1.10744   2.76860
    3185.00   4.503109     0.9371E+01  -1.11096   2.77741
    3195.00   4.504471     0.9304E+01  -1.11407   2.78518
    3210.00   4.506505     0.9182E+01  -1.11980   2.79951
    3230.00   4.509202     0.9023E+01  -1.12741   2.81853
    3250.00   4.511883     0.8870E+01  -1.13480   2.83700
    3270.00   4.514548     0.8709E+01  -1.14277   2.85691
    3290.00   4.517196     0.8540E+01  -1.15126   2.87815
    3310.00   4.519828     0.8396E+01  -1.15869   2.89673
    3330.00   4.522444     0.8234E+01  -1.16715   2.91788
    3350.00   4.525045     0.8092E+01  -1.17467   2.93668
    3370.00   4.527630     0.7935E+01  -1.18320   2.95799
    3390.00   4.530200     0.7775E+01  -1.19207   2.98016
    3410.00   4.532754     0.7617E+01  -1.20097   3.00242
    3430.00   4.535294     0.7483E+01  -1.20864   3.02159
    3450.00   4.537819     0.7340E+01  -1.21706   3.04265
    3470.00   4.540329     0.7192E+01  -1.22588   3.06469
    3490.00   4.542826     0.7053E+01  -1.23434   3.08585
    3510.00   4.545307     0.6919E+01  -1.24269   3.10672
    3530.00   4.547775     0.6775E+01  -1.25185   3.12962
    3550.00   4.550228     0.6649E+01  -1.26000   3.14999
    3570.00   4.552669     0.6517E+01  -1.26869   3.17173
    3590.00   4.555095     0.6393E+01  -1.27706   3.19266
    3610.00   4.557508     0.6276E+01  -1.28503   3.21256
    3630.00   4.559907     0.6152E+01  -1.29369   3.23422
    3650.00   4.562293     0.6025E+01  -1.30282   3.25704
    3670.00   4.564666     0.5905E+01  -1.31150   3.27876
    3690.00   4.567026     0.5778E+01  -1.32095   3.30236
    3710.00   4.569374     0.5662E+01  -1.32976   3.32441
    3730.00   4.571709     0.5567E+01  -1.33711   3.34278
    3750.00   4.574031     0.5443E+01  -1.34689   3.36723
    3770.00   4.576342     0.5356E+01  -1.35392   3.38480
    3790.00   4.578639     0.5250E+01  -1.36258   3.40645
    3810.00   4.580925     0.5153E+01  -1.37064   3.42660
    3830.00   4.583199     0.5061E+01  -1.37848   3.44621
    3850.00   4.585461     0.4967E+01  -1.38667   3.46667
    3870.00   4.587711     0.4861E+01  -1.39599   3.48996
    3890.00   4.589950     0.4774E+01  -1.40383   3.50957
    3910.00   4.592176     0.4688E+01  -1.41176   3.52940
    3930.00   4.594393     0.4600E+01  -1.42000   3.55001
    3950.00   4.596597     0.4502E+01  -1.42930   3.57325
    3970.00   4.598790     0.4422E+01  -1.43709   3.59273
    3990.00   4.600973     0.4327E+01  -1.44655   3.61638
    4010.00   4.603145     0.4255E+01  -1.45379   3.63449
    4030.00   4.605305     0.4183E+01  -1.46124   3.65309
    4050.00   4.607455     0.4100E+01  -1.46999   3.67497
    4070.00   4.609594     0.4028E+01  -1.47764   3.69411
    4090.00   4.611723     0.3955E+01  -1.48556   3.71391
    4110.00   4.613842     0.3888E+01  -1.49300   3.73250
    4130.00   4.615950     0.3824E+01  -1.50019   3.75047
    4150.00   4.618048     0.3756E+01  -1.50800   3.76999
    4170.00   4.620136     0.3693E+01  -1.51542   3.78854
    4190.00   4.622214     0.3627E+01  -1.52321   3.80803
    4210.00   4.624282     0.3562E+01  -1.53109   3.82772
    4230.00   4.626340     0.3513E+01  -1.53702   3.84256
    4250.00   4.628389     0.3449E+01  -1.54505   3.86261
    4270.00   4.630428     0.3396E+01  -1.55174   3.87936
    4290.00   4.632457     0.3261E+01  -1.56933   3.92333
    4310.00   4.634478     0.3123E+01  -1.58814   3.97034
    4330.00   4.636488     0.3104E+01  -1.59080   3.97699
    4350.00   4.638489     0.2990E+01  -1.60705   4.01763
    4370.00   4.640481     0.2917E+01  -1.61784   4.04459
    4390.00   4.642465     0.2860E+01  -1.62642   4.06605
    4410.00   4.644439     0.2766E+01  -1.64090   4.10225
    4430.00   4.646404     0.2724E+01  -1.64760   4.11899
    4450.00   4.648360     0.2677E+01  -1.65515   4.13789
    4470.00   4.650308     0.2598E+01  -1.66810   4.17025
    4490.00   4.652246     0.2583E+01  -1.67055   4.17637
    4510.00   4.654177     0.2525E+01  -1.68040   4.20101
    4530.00   4.656098     0.2468E+01  -1.69031   4.22578
    4550.00   4.658011     0.2449E+01  -1.69380   4.23450
    4570.00   4.659916     0.2417E+01  -1.69942   4.24854
    4590.00   4.661813     0.2353E+01  -1.71114   4.27784
    4610.00   4.663701     0.2345E+01  -1.71268   4.28170
    4630.00   4.665581     0.2302E+01  -1.72055   4.30138
    4650.00   4.667453     0.2276E+01  -1.72549   4.31371
    4670.00   4.669317     0.2256E+01  -1.72931   4.32327
    4690.00   4.671173     0.2216E+01  -1.73711   4.34278
    4710.00   4.673021     0.2180E+01  -1.74423   4.36057
    4730.00   4.674861     0.2172E+01  -1.74581   4.36452
    4750.00   4.676694     0.2129E+01  -1.75464   4.38659
    4770.00   4.678518     0.2100E+01  -1.76050   4.40125
    4790.00   4.680336     0.2078E+01  -1.76519   4.41297
    4810.00   4.682145     0.2033E+01  -1.77465   4.43663
    4830.00   4.683947     0.2028E+01  -1.77569   4.43922
    4850.00   4.685741     0.1993E+01  -1.78316   4.45791
    4870.00   4.687529     0.1958E+01  -1.79099   4.47748
    4890.00   4.689309     0.1931E+01  -1.79699   4.49246
    4910.00   4.691082     0.1907E+01  -1.80244   4.50609
    4930.00   4.692847     0.1878E+01  -1.80913   4.52281
    4950.00   4.694605     0.1848E+01  -1.81608   4.54020
    4970.00   4.696356     0.1831E+01  -1.82009   4.55023
    4990.00   4.698101     0.1804E+01  -1.82650   4.56626
    5010.00   4.699838     0.1782E+01  -1.83191   4.57978
    5030.00   4.701568     0.1758E+01  -1.83769   4.59421
    5050.00   4.703291     0.1725E+01  -1.84594   4.61484
    5070.00   4.705008     0.1709E+01  -1.85010   4.62526
    5090.00   4.706717     0.1687E+01  -1.85572   4.63929
    5110.00   4.708421     0.1659E+01  -1.86297   4.65743
    5130.00   4.710117     0.1645E+01  -1.86661   4.66653
    5150.00   4.711807     0.1617E+01  -1.87390   4.68475
    5170.00   4.713490     0.1606E+01  -1.87702   4.69254
    5190.00   4.715167     0.1579E+01  -1.88436   4.71090
    5210.00   4.716838     0.1561E+01  -1.88926   4.72316
    5230.00   4.718502     0.1536E+01  -1.89631   4.74078
    5250.00   4.720160     0.1522E+01  -1.90044   4.75110
    5270.00   4.721810     0.1510E+01  -1.90378   4.75945
    5290.00   4.723455     0.1480E+01  -1.91245   4.78113
    5310.00   4.725095     0.1461E+01  -1.91799   4.79498
    5330.00   4.726727     0.1447E+01  -1.92238   4.80595
    5350.00   4.728354     0.1429E+01  -1.92771   4.81926
    5370.00   4.729974     0.1413E+01  -1.93275   4.83188
    5390.00   4.731589     0.1396E+01  -1.93791   4.84477
    5410.00   4.733197     0.1379E+01  -1.94322   4.85804
    5430.00   4.734800     0.1356E+01  -1.95050   4.87624
    5450.00   4.736397     0.1346E+01  -1.95363   4.88408
    5470.00   4.737988     0.1326E+01  -1.96025   4.90063
    5490.00   4.739573     0.1311E+01  -1.96514   4.91284
    5510.00   4.741152     0.1294E+01  -1.97079   4.92698
    5530.00   4.742725     0.1290E+01  -1.97211   4.93027
    5550.00   4.744293     0.1262E+01  -1.98173   4.95432
    5570.00   4.745855     0.1255E+01  -1.98411   4.96027
    5590.00   4.747412     0.1236E+01  -1.99085   4.97713
    5610.00   4.748963     0.1224E+01  -1.99490   4.98724
    5630.00   4.750508     0.1204E+01  -2.00197   5.00493
    5650.00   4.752048     0.1195E+01  -2.00523   5.01308
    5670.00   4.753583     0.1181E+01  -2.01052   5.02631
    5690.00   4.755112     0.1162E+01  -2.01750   5.04376
    5710.00   4.756636     0.1154E+01  -2.02045   5.05114
    5730.00   4.758155     0.1140E+01  -2.02595   5.06488
    5750.00   4.759668     0.1126E+01  -2.03114   5.07784
    5770.00   4.761176     0.1112E+01  -2.03679   5.09198
    5790.00   4.762679     0.1102E+01  -2.04060   5.10149
    5810.00   4.764176     0.1086E+01  -2.04693   5.11733
    5830.00   4.765669     0.1074E+01  -2.05175   5.12937
    5850.00   4.767156     0.1062E+01  -2.05670   5.14174
    5870.00   4.768638     0.1047E+01  -2.06297   5.15743
    5890.00   4.770115     0.1035E+01  -2.06777   5.16942
    5910.00   4.771587     0.1024E+01  -2.07250   5.18125
    5930.00   4.773055     0.1013E+01  -2.07734   5.19334
    5950.00   4.774517     0.9991E+00  -2.08314   5.20786
    5970.00   4.775974     0.9895E+00  -2.08732   5.21829
    5990.00   4.777427     0.9779E+00  -2.09244   5.23110
    6010.00   4.778874     0.9665E+00  -2.09753   5.24383
    6030.00   4.780317     0.9551E+00  -2.10267   5.25668
    6050.00   4.781755     0.9423E+00  -2.10857   5.27143
    6070.00   4.783189     0.9316E+00  -2.11349   5.28373
    6090.00   4.784617     0.9207E+00  -2.11860   5.29651
    6110.00   4.786041     0.9092E+00  -2.12406   5.31015
    6130.00   4.787460     0.9000E+00  -2.12850   5.32124
    6150.00   4.788875     0.8902E+00  -2.13327   5.33317
    6170.00   4.790285     0.8809E+00  -2.13784   5.34459
    6190.00   4.791691     0.8705E+00  -2.14297   5.35742
    6210.00   4.793092     0.8611E+00  -2.14767   5.36918
    6230.00   4.794488     0.8501E+00  -2.15325   5.38313
    6250.00   4.795880     0.8394E+00  -2.15876   5.39689
    6270.00   4.797267     0.8299E+00  -2.16373   5.40933
    6290.00   4.798651     0.8210E+00  -2.16838   5.42096
    6310.00   4.800029     0.8113E+00  -2.17357   5.43393
    6330.00   4.801404     0.8036E+00  -2.17771   5.44428
    6350.00   4.802773     0.7937E+00  -2.18311   5.45778
    6370.00   4.804139     0.7860E+00  -2.18732   5.46829
    6390.00   4.805501     0.7761E+00  -2.19283   5.48209
    6420.00   4.807535     0.7632E+00  -2.20008   5.50021
    6460.00   4.810232     0.7458E+00  -2.21012   5.52531
    6500.00   4.812913     0.7294E+00  -2.21980   5.54949
    6540.00   4.815578     0.7132E+00  -2.22954   5.57384
    6580.00   4.818226     0.6979E+00  -2.23895   5.59737
    6620.00   4.820858     0.6823E+00  -2.24878   5.62194
    6660.00   4.823474     0.6675E+00  -2.25831   5.64577
    6700.00   4.826075     0.6531E+00  -2.26778   5.66946
    6740.00   4.828660     0.6386E+00  -2.27749   5.69372
    6780.00   4.831230     0.6249E+00  -2.28690   5.71726
    6820.00   4.833784     0.6114E+00  -2.29640   5.74099
    6860.00   4.836324     0.5986E+00  -2.30563   5.76407
    6900.00   4.838849     0.5857E+00  -2.31508   5.78770
    6940.00   4.841359     0.5733E+00  -2.32436   5.81091
    6980.00   4.843855     0.5612E+00  -2.33358   5.83396
    7020.00   4.846337     0.5493E+00  -2.34297   5.85742
    7060.00   4.848804     0.5380E+00  -2.35199   5.87998
    7100.00   4.851258     0.5267E+00  -2.36116   5.90291
    7140.00   4.853698     0.5159E+00  -2.37020   5.92551
    7180.00   4.856124     0.5052E+00  -2.37931   5.94829
    7220.00   4.858537     0.4948E+00  -2.38829   5.97072
    7260.00   4.860937     0.4847E+00  -2.39731   5.99328
    7300.00   4.863323     0.4748E+00  -2.40620   6.01549
    7340.00   4.865696     0.4651E+00  -2.41517   6.03793
    7380.00   4.868056     0.4558E+00  -2.42393   6.05983
    7420.00   4.870404     0.4464E+00  -2.43298   6.08246
    7460.00   4.872739     0.4375E+00  -2.44176   6.10440
    7500.00   4.875061     0.4289E+00  -2.45039   6.12598
    7540.00   4.877371     0.4203E+00  -2.45916   6.14791
    7580.00   4.879669     0.4123E+00  -2.46754   6.16884
    7620.00   4.881955     0.4042E+00  -2.47614   6.19034
    7660.00   4.884229     0.3963E+00  -2.48469   6.21171
    7700.00   4.886491     0.3886E+00  -2.49327   6.23316
    7740.00   4.888741     0.3811E+00  -2.50168   6.25421
    7780.00   4.890980     0.3738E+00  -2.51009   6.27523
    7820.00   4.893207     0.3666E+00  -2.51851   6.29627
    7860.00   4.895422     0.3597E+00  -2.52685   6.31712
    7900.00   4.897627     0.3528E+00  -2.53517   6.33793
    7940.00   4.899820     0.3462E+00  -2.54345   6.35863
    7980.00   4.902003     0.3397E+00  -2.55167   6.37916
    8020.00   4.904174     0.3332E+00  -2.56000   6.40000
    8060.00   4.906335     0.3270E+00  -2.56815   6.42039
    8100.00   4.908485     0.3210E+00  -2.57619   6.44048
    8140.00   4.910625     0.3151E+00  -2.58435   6.46087
    8180.00   4.912753     0.3093E+00  -2.59231   6.48077
    8220.00   4.914872     0.3037E+00  -2.60030   6.50076
    8260.00   4.916980     0.2982E+00  -2.60831   6.52076
    8300.00   4.919078     0.2928E+00  -2.61624   6.54060
    8340.00   4.921166     0.2874E+00  -2.62425   6.56064
    8380.00   4.923244     0.2822E+00  -2.63214   6.58034
    8420.00   4.925312     0.2773E+00  -2.63986   6.59965
    8460.00   4.927370     0.2723E+00  -2.64770   6.61926
    8500.00   4.929419     0.2675E+00  -2.65545   6.63862
    8540.00   4.931458     0.2628E+00  -2.66316   6.65790
    8580.00   4.933487     0.2582E+00  -2.67083   6.67708
    8620.00   4.935507     0.2537E+00  -2.67849   6.69621
    8660.00   4.937518     0.2493E+00  -2.68608   6.71520
    8700.00   4.939519     0.2449E+00  -2.69369   6.73423
    8740.00   4.941511     0.2407E+00  -2.70125   6.75313
    8780.00   4.943495     0.2366E+00  -2.70880   6.77199
    8820.00   4.945469     0.2325E+00  -2.71636   6.79090
    8860.00   4.947433     0.2285E+00  -2.72381   6.80951
    8900.00   4.949390     0.2246E+00  -2.73127   6.82818
    8940.00   4.951338     0.2209E+00  -2.73861   6.84652
    8980.00   4.953277     0.2171E+00  -2.74611   6.86528
    9020.00   4.955207     0.2135E+00  -2.75332   6.88330
    9060.00   4.957129     0.2100E+00  -2.76059   6.90148
    9100.00   4.959042     0.2064E+00  -2.76810   6.92024
    9140.00   4.960946     0.2030E+00  -2.77520   6.93800
    9180.00   4.962843     0.1997E+00  -2.78242   6.95604
    9220.00   4.964731     0.1964E+00  -2.78951   6.97377
    9260.00   4.966611     0.1932E+00  -2.79669   6.99172
    9300.00   4.968483     0.1901E+00  -2.80381   7.00952
    9340.00   4.970347     0.1870E+00  -2.81092   7.02731
    9380.00   4.972203     0.1840E+00  -2.81798   7.04494
    9420.00   4.974051     0.1810E+00  -2.82502   7.06256
    9460.00   4.975891     0.1781E+00  -2.83207   7.08018
    9500.00   4.977724     0.1753E+00  -2.83905   7.09763
    9540.00   4.979548     0.1725E+00  -2.84600   7.11500
    9580.00   4.981365     0.1698E+00  -2.85292   7.13229
    9620.00   4.983175     0.1671E+00  -2.85984   7.14959
    9660.00   4.984977     0.1645E+00  -2.86669   7.16672
    9700.00   4.986772     0.1619E+00  -2.87353   7.18383
    9740.00   4.988559     0.1593E+00  -2.88056   7.20140
    9780.00   4.990339     0.1569E+00  -2.88722   7.21806
    9820.00   4.992111     0.1545E+00  -2.89394   7.23484
    9860.00   4.993877     0.1521E+00  -2.90068   7.25170
    9900.00   4.995635     0.1497E+00  -2.90738   7.26845
    9940.00   4.997386     0.1474E+00  -2.91411   7.28527
    9980.00   4.999130     0.1452E+00  -2.92076   7.30191
   10020.00   5.000868     0.1430E+00  -2.92740   7.31850
   20000.00   5.301030     0.9817E-02  -4.09075  10.22687
   40000.00   5.602060     0.6382E-03  -5.27780  13.19449
   60000.00   5.778151     0.1275E-03  -5.97737  14.94344
   80000.00   5.903090     0.4051E-04  -6.47522  16.18804
  100000.00   6.000000     0.1662E-04  -6.86201  17.15502
  120000.00   6.079181     0.8023E-05  -7.17838  17.94596
  140000.00   6.146128     0.4332E-05  -7.44608  18.61519
  160000.00   6.204120     0.2539E-05  -7.67808  19.19520
