age =   10.0    [Fe/H] =    0.00

wavele(nm) log wave(A)   Hlam       log(Hlam/Hlam(V))  Hlam(mag(V)) 
      89.50   2.951823     0.1101E-12 -15.21288  38.03219
      90.50   2.956649     0.1809E-12 -14.99720  37.49301
      91.50   2.961421     0.2835E-12 -14.80214  37.00536
      92.50   2.966142     0.2529E-10 -12.85181  32.12951
      93.50   2.970812     0.3534E-10 -12.70638  31.76596
      94.50   2.975432     0.5104E-10 -12.54677  31.36694
      95.50   2.980003     0.7716E-10 -12.36729  30.91824
      96.50   2.984527     0.1123E-09 -12.20423  30.51058
      97.50   2.989005     0.1503E-09 -12.07782  30.19456
      98.50   2.993436     0.2109E-09 -11.93072  29.82680
      99.50   2.997823     0.2864E-09 -11.79778  29.49444
     100.50   3.002166     0.4247E-09 -11.62664  29.06661
     101.50   3.006466     0.5763E-09 -11.49405  28.73511
     102.50   3.010724     0.6748E-09 -11.42552  28.56380
     103.50   3.014940     0.1082E-08 -11.22032  28.05081
     104.50   3.019116     0.1483E-08 -11.08344  27.70860
     105.50   3.023252     0.1909E-08 -10.97385  27.43462
     106.50   3.027350     0.2549E-08 -10.84826  27.12064
     107.50   3.031409     0.3439E-08 -10.71823  26.79557
     108.50   3.035430     0.4607E-08 -10.59127  26.47819
     109.50   3.039414     0.5799E-08 -10.49133  26.22832
     110.50   3.043362     0.3049E-07  -9.77056  24.42640
     111.50   3.047275     0.5446E-07  -9.51863  23.79658
     112.50   3.051152     0.8151E-07  -9.34347  23.35869
     113.50   3.054996     0.1207E-06  -9.17282  22.93205
     114.50   3.058805     0.1618E-06  -9.04583  22.61457
     115.50   3.062582     0.1889E-06  -8.97836  22.44591
     116.50   3.066326     0.2581E-06  -8.84296  22.10740
     117.50   3.070038     0.3324E-06  -8.73302  21.83255
     118.50   3.073718     0.3653E-06  -8.69206  21.73016
     119.50   3.077368     0.2991E-06  -8.77889  21.94722
     120.50   3.080987     0.3286E-06  -8.73799  21.84497
     121.50   3.084576     0.7433E-07  -9.38356  23.45890
     122.50   3.088136     0.4438E-06  -8.60750  21.51875
     123.50   3.091667     0.9031E-06  -8.29895  20.74737
     124.50   3.095169     0.1300E-05  -8.14076  20.35190
     125.50   3.098644     0.1593E-05  -8.05247  20.13119
     126.50   3.102091     0.1698E-05  -8.02488  20.06219
     127.50   3.105510     0.2115E-05  -7.92930  19.82326
     128.50   3.108903     0.2429E-05  -7.86925  19.67314
     129.50   3.112270     0.2957E-05  -7.78389  19.45972
     130.50   3.115611     0.3069E-05  -7.76772  19.41930
     131.50   3.118926     0.3870E-05  -7.66696  19.16741
     132.50   3.122216     0.4053E-05  -7.64697  19.11744
     133.50   3.125481     0.4524E-05  -7.59914  18.99784
     134.50   3.128722     0.5324E-05  -7.52843  18.82108
     135.50   3.131939     0.6166E-05  -7.46472  18.66181
     136.50   3.135133     0.6615E-05  -7.43419  18.58547
     137.50   3.138303     0.7140E-05  -7.40100  18.50251
     138.50   3.141450     0.7849E-05  -7.35991  18.39979
     139.50   3.144574     0.8845E-05  -7.30803  18.27006
     140.50   3.147676     0.1073E-04  -7.22403  18.06009
     141.50   3.150756     0.1217E-04  -7.16947  17.92366
     142.50   3.153815     0.1401E-04  -7.10838  17.77095
     143.50   3.156852     0.1661E-04  -7.03438  17.58596
     144.20   3.158965     0.2155E-04  -6.92123  17.30308
     144.70   3.160469     0.1931E-04  -6.96890  17.42225
     145.50   3.162863     0.2277E-04  -6.89736  17.24340
     146.50   3.165838     0.2911E-04  -6.79065  16.97661
     147.50   3.168792     0.3316E-04  -6.73413  16.83533
     148.50   3.171726     0.3572E-04  -6.70177  16.75443
     149.50   3.174641     0.4692E-04  -6.58338  16.45846
     150.50   3.177536     0.5724E-04  -6.49704  16.24260
     151.20   3.179552     0.4312E-04  -6.62002  16.55005
     151.70   3.180986     0.5534E-04  -6.51168  16.27919
     152.50   3.183270     0.1316E-03  -6.13551  15.33878
     153.50   3.186108     0.2153E-03  -5.92166  14.80415
     154.50   3.188928     0.1787E-03  -6.00257  15.00642
     155.50   3.191730     0.2929E-03  -5.78792  14.46979
     156.50   3.194514     0.2757E-03  -5.81427  14.53568
     157.50   3.197281     0.5081E-03  -5.54872  13.87179
     158.50   3.200029     0.6179E-03  -5.46379  13.65947
     159.50   3.202761     0.7231E-03  -5.39548  13.48871
     160.50   3.205475     0.7750E-03  -5.36539  13.41347
     161.50   3.208173     0.8522E-03  -5.32417  13.31043
     162.50   3.210853     0.9558E-03  -5.27433  13.18583
     163.50   3.213518     0.1120E-02  -5.20533  13.01333
     164.50   3.216166     0.1578E-02  -5.05671  12.64176
     165.50   3.218798     0.1011E-02  -5.25017  13.12542
     166.50   3.221414     0.1816E-02  -4.99558  12.48896
     167.20   3.223236     0.1277E-02  -5.14846  12.87115
     167.70   3.224533     0.4679E-02  -4.58454  11.46134
     168.50   3.226600     0.5286E-02  -4.53158  11.32895
     169.50   3.229170     0.6546E-02  -4.43870  11.09676
     170.50   3.231725     0.7087E-02  -4.40422  11.01055
     171.50   3.234264     0.6949E-02  -4.41275  11.03188
     172.50   3.236789     0.8795E-02  -4.31049  10.77623
     173.50   3.239300     0.1063E-01  -4.22829  10.57073
     174.50   3.241796     0.1449E-01  -4.09373  10.23434
     175.50   3.244277     0.1995E-01  -3.95485   9.88712
     176.50   3.246745     0.1804E-01  -3.99835   9.99589
     177.50   3.249198     0.2031E-01  -3.94703   9.86758
     178.50   3.251638     0.2657E-01  -3.83026   9.57565
     179.50   3.254065     0.3402E-01  -3.72297   9.30742
     180.50   3.256477     0.3440E-01  -3.71809   9.29523
     181.50   3.258877     0.3161E-01  -3.75483   9.38707
     182.50   3.261263     0.3991E-01  -3.65358   9.13394
     183.50   3.263636     0.4164E-01  -3.63525   9.08811
     184.50   3.265996     0.3131E-01  -3.75907   9.39769
     185.50   3.268344     0.4689E-01  -3.58366   8.95916
     186.50   3.270679     0.5650E-01  -3.50264   8.75659
     187.50   3.273001     0.6055E-01  -3.47262   8.68156
     188.50   3.275311     0.6497E-01  -3.44202   8.60504
     189.50   3.277609     0.8527E-01  -3.32390   8.30976
     190.50   3.279895     0.8251E-01  -3.33823   8.34556
     191.50   3.282169     0.9184E-01  -3.29166   8.22916
     192.50   3.284431     0.8898E-01  -3.30541   8.26352
     193.50   3.286681     0.6197E-01  -3.46255   8.65638
     194.50   3.288920     0.1193E+00  -3.17796   7.94489
     195.50   3.291147     0.1248E+00  -3.15863   7.89657
     196.70   3.293804     0.1632E+00  -3.04194   7.60486
     197.60   3.295787     0.1508E+00  -3.07621   7.69053
     198.40   3.297542     0.1869E+00  -2.98316   7.45789
     199.50   3.299943     0.1970E+00  -2.96015   7.40037
     200.50   3.302114     0.1904E+00  -2.97505   7.43762
     201.50   3.304275     0.2082E+00  -2.93626   7.34064
     202.50   3.306425     0.1674E+00  -3.03107   7.57768
     203.50   3.308564     0.2370E+00  -2.88004   7.20009
     204.50   3.310693     0.2757E+00  -2.81426   7.03566
     205.50   3.312812     0.2791E+00  -2.80889   7.02222
     206.50   3.314920     0.2772E+00  -2.81194   7.02985
     207.40   3.316809     0.3042E+00  -2.77160   6.92901
     207.80   3.317646     0.9571E+00  -2.27377   5.68442
     208.50   3.319106     0.1342E+01  -2.12712   5.31779
     209.50   3.321184     0.1222E+01  -2.16757   5.41893
     210.50   3.323252     0.1207E+01  -2.17305   5.43262
     211.50   3.325310     0.1437E+01  -2.09738   5.24344
     212.50   3.327359     0.1241E+01  -2.16104   5.40261
     213.50   3.329398     0.1221E+01  -2.16816   5.42040
     214.50   3.331427     0.1678E+01  -2.02981   5.07453
     215.50   3.333447     0.1602E+01  -2.05011   5.12527
     216.50   3.335458     0.1350E+01  -2.12432   5.31079
     217.50   3.337459     0.1344E+01  -2.12640   5.31600
     218.50   3.339452     0.1965E+01  -1.96135   4.90338
     219.50   3.341434     0.1834E+01  -1.99121   4.97804
     220.50   3.343409     0.1834E+01  -1.99119   4.97799
     221.50   3.345374     0.1300E+01  -2.14089   5.35224
     222.50   3.347330     0.1715E+01  -2.02051   5.05128
     223.50   3.349277     0.2498E+01  -1.85710   4.64274
     224.50   3.351216     0.2374E+01  -1.87924   4.69809
     225.50   3.353147     0.1678E+01  -2.02991   5.07477
     226.50   3.355068     0.1431E+01  -2.09898   5.24746
     227.50   3.356982     0.1600E+01  -2.05053   5.12632
     228.50   3.358886     0.2585E+01  -1.84229   4.60572
     229.50   3.360783     0.1968E+01  -1.96066   4.90164
     230.50   3.362671     0.2613E+01  -1.83761   4.59404
     231.50   3.364551     0.2083E+01  -1.93604   4.84010
     232.50   3.366423     0.1733E+01  -2.01587   5.03967
     233.50   3.368287     0.1465E+01  -2.08879   5.22198
     234.50   3.370143     0.8843E+00  -2.30809   5.77022
     235.50   3.371991     0.1993E+01  -1.95510   4.88776
     236.50   3.373831     0.1056E+01  -2.23111   5.57778
     237.50   3.375664     0.1443E+01  -2.09531   5.23829
     238.50   3.377488     0.8061E+00  -2.34833   5.87082
     239.50   3.379306     0.1056E+01  -2.23087   5.57718
     240.50   3.381115     0.1098E+01  -2.21404   5.53510
     241.50   3.382917     0.1300E+01  -2.14077   5.35192
     242.50   3.384712     0.2581E+01  -1.84287   4.60717
     243.50   3.386499     0.2676E+01  -1.82728   4.56819
     244.50   3.388279     0.3356E+01  -1.72890   4.32226
     245.50   3.390052     0.3692E+01  -1.68747   4.21867
     246.50   3.391817     0.2878E+01  -1.79568   4.48921
     247.50   3.393575     0.2479E+01  -1.86043   4.65109
     248.50   3.395326     0.1082E+01  -2.22064   5.55159
     249.50   3.397071     0.1649E+01  -2.03745   5.09363
     250.50   3.398808     0.2912E+01  -1.79053   4.47631
     251.30   3.400192     0.1052E+01  -2.23285   5.58213
     251.80   3.401056     0.7489E+00  -2.38031   5.95076
     252.50   3.402261     0.8772E+00  -2.31160   5.77899
     253.50   3.403978     0.1945E+01  -1.96573   4.91433
     254.50   3.405688     0.2080E+01  -1.93674   4.84185
     255.50   3.407391     0.4918E+01  -1.56296   3.90739
     256.50   3.409087     0.3288E+01  -1.73774   4.34435
     257.50   3.410777     0.4620E+01  -1.59010   3.97525
     258.50   3.412461     0.3931E+01  -1.66025   4.15062
     259.50   3.414137     0.3450E+01  -1.71695   4.29237
     260.50   3.415808     0.2885E+01  -1.79456   4.48640
     261.50   3.417472     0.2550E+01  -1.84808   4.62021
     262.50   3.419129     0.3745E+01  -1.68124   4.20310
     263.50   3.420781     0.7819E+01  -1.36158   3.40394
     264.50   3.422426     0.1074E+02  -1.22351   3.05878
     265.50   3.424065     0.1643E+02  -1.03920   2.59799
     266.50   3.425697     0.9395E+01  -1.28180   3.20450
     267.50   3.427324     0.1088E+02  -1.21813   3.04532
     268.50   3.428944     0.1325E+02  -1.13257   2.83143
     269.50   3.430559     0.8827E+01  -1.30888   3.27219
     270.50   3.432167     0.1156E+02  -1.19166   2.97916
     271.50   3.433770     0.7789E+01  -1.36323   3.40808
     272.50   3.435366     0.5364E+01  -1.52525   3.81314
     273.50   3.436957     0.7544E+01  -1.37709   3.44272
     274.50   3.438542     0.3981E+01  -1.65469   4.13674
     275.50   3.440122     0.5868E+01  -1.48618   3.71546
     276.50   3.441695     0.8182E+01  -1.34186   3.35466
     277.50   3.443263     0.8632E+01  -1.31861   3.29653
     278.50   3.444825     0.4671E+01  -1.58530   3.96325
     279.50   3.446382     0.1975E+01  -1.95920   4.89799
     280.50   3.447933     0.2458E+01  -1.86411   4.66027
     281.50   3.449478     0.7374E+01  -1.38701   3.46752
     282.50   3.451018     0.1144E+02  -1.19647   2.99117
     283.50   3.452553     0.1047E+02  -1.23488   3.08719
     284.50   3.454082     0.6429E+01  -1.44656   3.61639
     285.50   3.455606     0.3146E+01  -1.75688   4.39220
     286.50   3.457125     0.1000E+02  -1.25466   3.13666
     287.50   3.458638     0.1560E+02  -1.06148   2.65370
     288.50   3.460146     0.1394E+02  -1.11030   2.77575
     289.50   3.461648     0.1860E+02  -0.98528   2.46321
     291.00   3.463893     0.2700E+02  -0.82327   2.05816
     293.00   3.466868     0.2523E+02  -0.85285   2.13213
     295.00   3.469822     0.2497E+02  -0.85732   2.14330
     297.00   3.472756     0.2687E+02  -0.82537   2.06343
     299.00   3.475671     0.2878E+02  -0.79560   1.98900
     301.00   3.478566     0.2925E+02  -0.78856   1.97141
     303.00   3.481443     0.3203E+02  -0.74911   1.87277
     305.00   3.484300     0.3302E+02  -0.73594   1.83984
     307.00   3.487138     0.3236E+02  -0.74465   1.86162
     309.00   3.489959     0.2837E+02  -0.80184   2.00460
     311.00   3.492760     0.3417E+02  -0.72112   1.80280
     313.00   3.495544     0.3053E+02  -0.76992   1.92480
     315.00   3.498311     0.3041E+02  -0.77169   1.92923
     317.00   3.501059     0.3521E+02  -0.70798   1.76996
     319.00   3.503791     0.2986E+02  -0.77960   1.94899
     321.00   3.506505     0.3342E+02  -0.73072   1.82680
     323.00   3.509202     0.2837E+02  -0.80178   2.00444
     325.00   3.511883     0.4137E+02  -0.63797   1.59493
     327.00   3.514548     0.4797E+02  -0.57375   1.43438
     329.00   3.517196     0.4683E+02  -0.58414   1.46034
     331.00   3.519828     0.4298E+02  -0.62142   1.55356
     333.00   3.522444     0.4475E+02  -0.60392   1.50979
     335.00   3.525045     0.4351E+02  -0.61609   1.54024
     337.00   3.527630     0.3100E+02  -0.76331   1.90827
     339.00   3.530200     0.3676E+02  -0.68932   1.72329
     341.00   3.532754     0.3863E+02  -0.66783   1.66958
     343.00   3.535294     0.4173E+02  -0.63426   1.58564
     345.00   3.537819     0.4760E+02  -0.57705   1.44263
     347.00   3.540329     0.4979E+02  -0.55758   1.39396
     349.00   3.542825     0.5542E+02  -0.51107   1.27768
     351.00   3.545307     0.5826E+02  -0.48935   1.22338
     353.00   3.547775     0.5173E+02  -0.54098   1.35244
     355.00   3.550228     0.5769E+02  -0.49363   1.23407
     357.00   3.552668     0.4410E+02  -0.61023   1.52558
     359.00   3.555094     0.4674E+02  -0.58499   1.46248
     361.00   3.557507     0.5754E+02  -0.49476   1.23691
     363.00   3.559907     0.5861E+02  -0.48674   1.21684
     364.00   3.561101     0.5809E+02  -0.49060   1.22651
     365.00   3.562293     0.6144E+02  -0.46625   1.16562
     367.00   3.564666     0.6633E+02  -0.43297   1.08243
     369.00   3.567026     0.5857E+02  -0.48705   1.21763
     371.00   3.569374     0.6123E+02  -0.46776   1.16941
     373.00   3.571709     0.3860E+02  -0.66811   1.67028
     375.00   3.574031     0.4453E+02  -0.60606   1.51514
     377.00   3.576341     0.5993E+02  -0.47705   1.19263
     379.00   3.578639     0.6185E+02  -0.46335   1.15838
     381.00   3.580925     0.5733E+02  -0.49632   1.24080
     383.00   3.583199     0.3082E+02  -0.76593   1.91483
     385.00   3.585461     0.4378E+02  -0.61346   1.53365
     387.00   3.587711     0.4307E+02  -0.62048   1.55120
     389.00   3.589950     0.5622E+02  -0.50485   1.26212
     391.00   3.592177     0.6936E+02  -0.41360   1.03400
     393.00   3.594393     0.3205E+02  -0.74883   1.87207
     395.00   3.596597     0.5896E+02  -0.48414   1.21034
     397.00   3.598790     0.4018E+02  -0.65068   1.62670
     399.00   3.600973     0.9237E+02  -0.28918   0.72294
     401.00   3.603144     0.1027E+03  -0.24305   0.60762
     403.00   3.605305     0.1013E+03  -0.24927   0.62319
     405.00   3.607455     0.9681E+02  -0.26878   0.67195
     407.00   3.609594     0.9068E+02  -0.29719   0.74297
     409.00   3.611723     0.1147E+03  -0.19519   0.48797
     411.00   3.613842     0.1074E+03  -0.22379   0.55948
     413.00   3.615950     0.1040E+03  -0.23782   0.59455
     415.00   3.618048     0.1015E+03  -0.24813   0.62033
     417.00   3.620136     0.1033E+03  -0.24052   0.60129
     419.00   3.622214     0.1009E+03  -0.25067   0.62667
     421.00   3.624282     0.1023E+03  -0.24475   0.61187
     423.00   3.626340     0.9586E+02  -0.27308   0.68270
     425.00   3.628389     0.1038E+03  -0.23832   0.59580
     427.00   3.630428     0.9739E+02  -0.26620   0.66550
     429.00   3.632457     0.9070E+02  -0.29708   0.74269
     431.00   3.634477     0.7814E+02  -0.36186   0.90464
     433.00   3.636488     0.1182E+03  -0.18203   0.45508
     435.00   3.638489     0.1182E+03  -0.18196   0.45490
     437.00   3.640481     0.1288E+03  -0.14478   0.36196
     439.00   3.642465     0.1128E+03  -0.20249   0.50621
     441.00   3.644439     0.1203E+03  -0.17435   0.43587
     443.00   3.646404     0.1309E+03  -0.13780   0.34450
     445.00   3.648360     0.1323E+03  -0.13320   0.33299
     447.00   3.650307     0.1426E+03  -0.10070   0.25174
     449.00   3.652246     0.1470E+03  -0.08753   0.21882
     451.00   3.654176     0.1690E+03  -0.02672   0.06681
     453.00   3.656098     0.1463E+03  -0.08943   0.22357
     455.00   3.658011     0.1543E+03  -0.06626   0.16565
     457.00   3.659916     0.1682E+03  -0.02886   0.07214
     459.00   3.661813     0.1576E+03  -0.05722   0.14304
     461.00   3.663701     0.1631E+03  -0.04236   0.10590
     463.00   3.665581     0.1584E+03  -0.05484   0.13709
     465.00   3.667453     0.1609E+03  -0.04802   0.12006
     467.00   3.669317     0.1689E+03  -0.02705   0.06762
     469.00   3.671173     0.1649E+03  -0.03754   0.09384
     471.00   3.673021     0.1613E+03  -0.04719   0.11799
     473.00   3.674861     0.1669E+03  -0.03221   0.08051
     475.00   3.676694     0.1715E+03  -0.02047   0.05118
     477.00   3.678518     0.1676E+03  -0.03053   0.07632
     479.00   3.680336     0.1691E+03  -0.02653   0.06633
     481.00   3.682145     0.1697E+03  -0.02510   0.06275
     483.00   3.683947     0.1760E+03  -0.00912   0.02279
     485.00   3.685742     0.1676E+03  -0.03055   0.07637
     487.00   3.687529     0.1537E+03  -0.06791   0.16978
     489.00   3.689309     0.1707E+03  -0.02236   0.05590
     491.00   3.691082     0.1718E+03  -0.01968   0.04919
     493.00   3.692847     0.1686E+03  -0.02773   0.06932
     495.00   3.694605     0.1758E+03  -0.00966   0.02415
     497.00   3.696356     0.1688E+03  -0.02722   0.06805
     499.00   3.698101     0.1568E+03  -0.05942   0.14855
     501.00   3.699838     0.1474E+03  -0.08631   0.21577
     503.00   3.701568     0.1581E+03  -0.05586   0.13964
     505.00   3.703291     0.1581E+03  -0.05578   0.13946
     507.00   3.705008     0.1656E+03  -0.03574   0.08935
     509.00   3.706718     0.1561E+03  -0.06121   0.15301
     511.00   3.708421     0.1604E+03  -0.04937   0.12343
     513.00   3.710117     0.1553E+03  -0.06341   0.15853
     515.00   3.711807     0.1496E+03  -0.07972   0.19929
     517.00   3.713490     0.1330E+03  -0.13076   0.32690
     519.00   3.715167     0.1391E+03  -0.11133   0.27831
     521.00   3.716838     0.1529E+03  -0.07044   0.17609
     523.00   3.718502     0.1685E+03  -0.02807   0.07017
     525.00   3.720159     0.1768E+03  -0.00728   0.01821
     527.00   3.721811     0.1538E+03  -0.06770   0.16925
     529.00   3.723456     0.1808E+03   0.00239  -0.00598
     531.00   3.725095     0.1932E+03   0.03121  -0.07802
     533.00   3.726727     0.1682E+03  -0.02892   0.07230
     535.00   3.728354     0.1867E+03   0.01655  -0.04136
     537.00   3.729974     0.1850E+03   0.01236  -0.03089
     539.00   3.731589     0.1807E+03   0.00237  -0.00592
     541.00   3.733197     0.1780E+03  -0.00428   0.01070
     543.00   3.734800     0.1812E+03   0.00343  -0.00857
     545.00   3.736397     0.1851E+03   0.01269  -0.03173
     547.00   3.737987     0.1803E+03   0.00117  -0.00293
     549.00   3.739572     0.1831E+03   0.00807  -0.02018
     551.00   3.741152     0.1798E+03   0.00000   0.00000
     553.00   3.742725     0.1872E+03   0.01759  -0.04397
     555.00   3.744293     0.1908E+03   0.02590  -0.06476
     557.00   3.745855     0.1865E+03   0.01607  -0.04017
     559.00   3.747412     0.1814E+03   0.00382  -0.00955
     561.00   3.748963     0.1879E+03   0.01929  -0.04822
     563.00   3.750508     0.1867E+03   0.01635  -0.04088
     565.00   3.752048     0.1902E+03   0.02446  -0.06115
     567.00   3.753583     0.1856E+03   0.01376  -0.03441
     569.00   3.755112     0.1920E+03   0.02871  -0.07177
     571.00   3.756636     0.1857E+03   0.01413  -0.03533
     573.00   3.758155     0.2023E+03   0.05133  -0.12832
     575.00   3.759668     0.1952E+03   0.03570  -0.08924
     577.00   3.761176     0.1977E+03   0.04140  -0.10350
     579.00   3.762679     0.1898E+03   0.02364  -0.05910
     581.00   3.764176     0.1983E+03   0.04253  -0.10633
     583.00   3.765669     0.2035E+03   0.05385  -0.13462
     585.00   3.767156     0.1955E+03   0.03647  -0.09117
     587.00   3.768638     0.1951E+03   0.03553  -0.08884
     589.00   3.770115     0.1762E+03  -0.00880   0.02201
     591.00   3.771587     0.1920E+03   0.02851  -0.07127
     593.00   3.773055     0.1930E+03   0.03089  -0.07722
     595.00   3.774517     0.1936E+03   0.03209  -0.08022
     597.00   3.775974     0.1977E+03   0.04133  -0.10332
     599.00   3.777427     0.1949E+03   0.03504  -0.08761
     601.00   3.778874     0.1926E+03   0.02985  -0.07462
     603.00   3.780317     0.1983E+03   0.04266  -0.10665
     605.00   3.781755     0.2026E+03   0.05188  -0.12969
     607.00   3.783189     0.2019E+03   0.05053  -0.12631
     609.00   3.784617     0.1951E+03   0.03548  -0.08871
     611.00   3.786041     0.1965E+03   0.03866  -0.09666
     613.00   3.787461     0.1859E+03   0.01454  -0.03635
     615.00   3.788875     0.1906E+03   0.02551  -0.06378
     617.00   3.790285     0.1779E+03  -0.00443   0.01109
     619.00   3.791691     0.1886E+03   0.02079  -0.05199
     621.00   3.793092     0.1865E+03   0.01587  -0.03967
     623.00   3.794488     0.1804E+03   0.00162  -0.00406
     625.00   3.795880     0.1753E+03  -0.01104   0.02759
     627.00   3.797267     0.1844E+03   0.01113  -0.02783
     629.00   3.798651     0.1892E+03   0.02211  -0.05528
     631.00   3.800029     0.1854E+03   0.01342  -0.03356
     633.00   3.801404     0.1892E+03   0.02216  -0.05539
     635.00   3.802774     0.1907E+03   0.02573  -0.06433
     637.00   3.804139     0.1905E+03   0.02524  -0.06311
     639.00   3.805501     0.1946E+03   0.03436  -0.08590
     641.00   3.806858     0.1909E+03   0.02603  -0.06507
     643.00   3.808211     0.1930E+03   0.03096  -0.07741
     645.00   3.809560     0.1925E+03   0.02971  -0.07426
     647.00   3.810904     0.1923E+03   0.02927  -0.07317
     649.00   3.812245     0.1888E+03   0.02132  -0.05330
     651.00   3.813581     0.1961E+03   0.03774  -0.09434
     653.00   3.814913     0.1970E+03   0.03979  -0.09949
     655.00   3.816241     0.1923E+03   0.02916  -0.07291
     657.00   3.817565     0.1826E+03   0.00683  -0.01708
     659.00   3.818885     0.1920E+03   0.02858  -0.07146
     661.00   3.820201     0.1938E+03   0.03256  -0.08140
     663.00   3.821513     0.1907E+03   0.02576  -0.06439
     665.00   3.822822     0.1887E+03   0.02109  -0.05272
     667.00   3.824126     0.1834E+03   0.00865  -0.02162
     669.00   3.825426     0.1851E+03   0.01259  -0.03148
     671.00   3.826723     0.1766E+03  -0.00771   0.01927
     673.00   3.828015     0.1808E+03   0.00246  -0.00615
     675.00   3.829304     0.1775E+03  -0.00562   0.01406
     677.00   3.830589     0.1786E+03  -0.00281   0.00702
     679.00   3.831870     0.1768E+03  -0.00712   0.01781
     681.00   3.833147     0.1782E+03  -0.00380   0.00950
     683.00   3.834421     0.1812E+03   0.00348  -0.00871
     685.00   3.835690     0.1770E+03  -0.00662   0.01654
     687.00   3.836957     0.1806E+03   0.00209  -0.00522
     689.00   3.838219     0.1848E+03   0.01192  -0.02980
     691.00   3.839478     0.1864E+03   0.01568  -0.03920
     693.00   3.840733     0.1858E+03   0.01439  -0.03597
     695.00   3.841985     0.1867E+03   0.01650  -0.04126
     697.00   3.843233     0.1910E+03   0.02635  -0.06587
     699.00   3.844477     0.1919E+03   0.02847  -0.07117
     701.00   3.845718     0.1910E+03   0.02622  -0.06554
     703.00   3.846955     0.1930E+03   0.03077  -0.07693
     705.00   3.848189     0.1890E+03   0.02167  -0.05417
     707.00   3.849419     0.1787E+03  -0.00254   0.00635
     709.00   3.850646     0.1696E+03  -0.02519   0.06298
     711.00   3.851870     0.1640E+03  -0.03988   0.09970
     713.00   3.853090     0.1595E+03  -0.05208   0.13019
     715.00   3.854306     0.1591E+03  -0.05312   0.13280
     717.00   3.855519     0.1617E+03  -0.04592   0.11480
     719.00   3.856729     0.1587E+03  -0.05411   0.13527
     721.00   3.857935     0.1639E+03  -0.04011   0.10027
     723.00   3.859138     0.1693E+03  -0.02607   0.06517
     725.00   3.860338     0.1720E+03  -0.01928   0.04821
     727.00   3.861534     0.1745E+03  -0.01280   0.03199
     729.00   3.862728     0.1751E+03  -0.01143   0.02859
     731.00   3.863917     0.1838E+03   0.00960  -0.02401
     733.00   3.865104     0.1842E+03   0.01067  -0.02668
     735.00   3.866287     0.1901E+03   0.02426  -0.06066
     737.00   3.867467     0.1971E+03   0.03989  -0.09973
     739.00   3.868644     0.1933E+03   0.03149  -0.07872
     741.00   3.869818     0.1962E+03   0.03789  -0.09472
     743.00   3.870989     0.2018E+03   0.05025  -0.12564
     745.00   3.872156     0.2012E+03   0.04898  -0.12245
     747.00   3.873321     0.2073E+03   0.06199  -0.15498
     749.00   3.874482     0.2065E+03   0.06017  -0.15044
     751.00   3.875640     0.2080E+03   0.06334  -0.15835
     753.00   3.876795     0.2117E+03   0.07101  -0.17753
     755.00   3.877947     0.2134E+03   0.07441  -0.18603
     757.00   3.879096     0.2129E+03   0.07344  -0.18360
     759.00   3.880242     0.2051E+03   0.05719  -0.14299
     761.00   3.881385     0.1975E+03   0.04088  -0.10220
     763.00   3.882524     0.1896E+03   0.02316  -0.05791
     765.00   3.883662     0.1810E+03   0.00304  -0.00761
     767.00   3.884795     0.1703E+03  -0.02342   0.05854
     769.00   3.885926     0.1739E+03  -0.01446   0.03615
     771.00   3.887054     0.1706E+03  -0.02278   0.05696
     773.00   3.888180     0.1710E+03  -0.02175   0.05438
     775.00   3.889302     0.1696E+03  -0.02518   0.06295
     777.00   3.890421     0.1726E+03  -0.01764   0.04410
     779.00   3.891537     0.1733E+03  -0.01593   0.03981
     781.00   3.892651     0.1741E+03  -0.01392   0.03480
     783.00   3.893762     0.1742E+03  -0.01371   0.03427
     785.00   3.894870     0.1722E+03  -0.01876   0.04689
     787.00   3.895975     0.1759E+03  -0.00948   0.02371
     789.00   3.897077     0.1755E+03  -0.01037   0.02593
     791.00   3.898176     0.1709E+03  -0.02190   0.05476
     793.00   3.899273     0.1728E+03  -0.01709   0.04273
     795.00   3.900367     0.1731E+03  -0.01640   0.04100
     797.00   3.901458     0.1782E+03  -0.00370   0.00926
     799.00   3.902547     0.1787E+03  -0.00253   0.00632
     801.00   3.903632     0.1830E+03   0.00785  -0.01964
     803.00   3.904716     0.1846E+03   0.01148  -0.02871
     805.00   3.905796     0.1843E+03   0.01073  -0.02682
     807.00   3.906873     0.1896E+03   0.02318  -0.05796
     809.00   3.907948     0.1885E+03   0.02070  -0.05175
     811.00   3.909021     0.1907E+03   0.02557  -0.06391
     813.00   3.910090     0.1967E+03   0.03911  -0.09779
     815.00   3.911158     0.1995E+03   0.04519  -0.11298
     817.00   3.912222     0.2006E+03   0.04772  -0.11930
     819.00   3.913284     0.1967E+03   0.03919  -0.09797
     821.00   3.914343     0.1903E+03   0.02463  -0.06159
     823.00   3.915400     0.1910E+03   0.02625  -0.06562
     825.00   3.916454     0.1904E+03   0.02498  -0.06246
     827.00   3.917506     0.1915E+03   0.02742  -0.06856
     829.00   3.918555     0.1892E+03   0.02218  -0.05546
     831.00   3.919601     0.1833E+03   0.00845  -0.02111
     833.00   3.920645     0.1819E+03   0.00512  -0.01281
     835.00   3.921686     0.1813E+03   0.00363  -0.00907
     837.00   3.922725     0.1825E+03   0.00658  -0.01645
     839.00   3.923762     0.1775E+03  -0.00553   0.01381
     841.00   3.924796     0.1828E+03   0.00722  -0.01804
     843.00   3.925828     0.1768E+03  -0.00731   0.01827
     845.00   3.926857     0.1688E+03  -0.02733   0.06833
     847.00   3.927883     0.1680E+03  -0.02951   0.07378
     849.00   3.928908     0.1713E+03  -0.02096   0.05241
     851.00   3.929929     0.1639E+03  -0.04015   0.10037
     853.00   3.930949     0.1708E+03  -0.02220   0.05550
     855.00   3.931966     0.1658E+03  -0.03501   0.08753
     857.00   3.932981     0.1761E+03  -0.00896   0.02239
     859.00   3.933993     0.1744E+03  -0.01317   0.03292
     861.00   3.935003     0.1774E+03  -0.00578   0.01446
     863.00   3.936011     0.1812E+03   0.00338  -0.00845
     865.00   3.937016     0.1827E+03   0.00714  -0.01786
     867.00   3.938019     0.1723E+03  -0.01847   0.04618
     869.00   3.939020     0.1799E+03   0.00039  -0.00098
     871.00   3.940018     0.1854E+03   0.01336  -0.03340
     873.00   3.941014     0.1868E+03   0.01672  -0.04180
     875.00   3.942008     0.1857E+03   0.01414  -0.03535
     877.00   3.943000     0.1879E+03   0.01919  -0.04797
     879.00   3.943989     0.1912E+03   0.02679  -0.06699
     881.00   3.944976     0.1880E+03   0.01956  -0.04889
     883.00   3.945961     0.1904E+03   0.02504  -0.06261
     885.00   3.946943     0.1875E+03   0.01828  -0.04569
     887.00   3.947924     0.1798E+03   0.00019  -0.00047
     889.00   3.948902     0.1810E+03   0.00291  -0.00729
     891.00   3.949878     0.1831E+03   0.00803  -0.02007
     893.00   3.950851     0.1805E+03   0.00172  -0.00429
     895.00   3.951823     0.1813E+03   0.00369  -0.00923
     897.00   3.952792     0.1819E+03   0.00517  -0.01292
     899.00   3.953760     0.1824E+03   0.00622  -0.01556
     901.00   3.954725     0.1782E+03  -0.00375   0.00938
     903.00   3.955688     0.1849E+03   0.01232  -0.03079
     905.00   3.956649     0.1904E+03   0.02499  -0.06247
     907.00   3.957607     0.1906E+03   0.02548  -0.06370
     909.00   3.958564     0.1876E+03   0.01849  -0.04623
     911.00   3.959518     0.1896E+03   0.02322  -0.05805
     913.00   3.960471     0.1923E+03   0.02934  -0.07336
     915.00   3.961421     0.1912E+03   0.02678  -0.06696
     917.00   3.962369     0.1908E+03   0.02588  -0.06470
     919.00   3.963315     0.1922E+03   0.02901  -0.07253
     921.00   3.964260     0.1854E+03   0.01336  -0.03340
     923.00   3.965202     0.1836E+03   0.00920  -0.02300
     925.00   3.966142     0.1816E+03   0.00444  -0.01110
     927.00   3.967080     0.1838E+03   0.00971  -0.02427
     929.00   3.968016     0.1802E+03   0.00099  -0.00248
     931.00   3.968950     0.1811E+03   0.00331  -0.00827
     933.00   3.969882     0.1818E+03   0.00496  -0.01241
     935.00   3.970812     0.1816E+03   0.00432  -0.01080
     937.00   3.971740     0.1780E+03  -0.00430   0.01075
     939.00   3.972666     0.1816E+03   0.00445  -0.01112
     941.00   3.973590     0.1788E+03  -0.00229   0.00573
     943.00   3.974512     0.1823E+03   0.00606  -0.01516
     945.00   3.975432     0.1800E+03   0.00067  -0.00167
     947.00   3.976350     0.1838E+03   0.00968  -0.02420
     949.00   3.977266     0.1844E+03   0.01095  -0.02738
     951.00   3.978180     0.1806E+03   0.00208  -0.00521
     953.00   3.979093     0.1825E+03   0.00644  -0.01611
     955.00   3.980003     0.1799E+03   0.00043  -0.00108
     957.00   3.980912     0.1815E+03   0.00422  -0.01056
     959.00   3.981819     0.1840E+03   0.01022  -0.02555
     961.00   3.982723     0.1820E+03   0.00543  -0.01356
     963.00   3.983626     0.1832E+03   0.00823  -0.02057
     965.00   3.984527     0.1806E+03   0.00208  -0.00521
     967.00   3.985426     0.1809E+03   0.00282  -0.00706
     969.00   3.986324     0.1829E+03   0.00755  -0.01888
     971.00   3.987219     0.1807E+03   0.00214  -0.00536
     973.00   3.988113     0.1791E+03  -0.00153   0.00382
     975.00   3.989005     0.1787E+03  -0.00260   0.00651
     977.00   3.989895     0.1792E+03  -0.00135   0.00336
     979.00   3.990783     0.1773E+03  -0.00603   0.01508
     981.00   3.991669     0.1808E+03   0.00258  -0.00644
     983.00   3.992553     0.1794E+03  -0.00089   0.00223
     985.00   3.993436     0.1803E+03   0.00139  -0.00349
     987.00   3.994317     0.1791E+03  -0.00166   0.00415
     989.00   3.995196     0.1788E+03  -0.00242   0.00604
     991.00   3.996074     0.1784E+03  -0.00322   0.00806
     993.00   3.996949     0.1791E+03  -0.00170   0.00424
     995.00   3.997823     0.1794E+03  -0.00091   0.00227
     997.00   3.998695     0.1794E+03  -0.00078   0.00196
     999.00   3.999566     0.1789E+03  -0.00210   0.00526
    1003.00   4.001301     0.1785E+03  -0.00308   0.00770
    1008.00   4.003461     0.1772E+03  -0.00636   0.01591
    1013.00   4.005610     0.1786E+03  -0.00286   0.00716
    1018.00   4.007748     0.1767E+03  -0.00750   0.01874
    1023.00   4.009875     0.1769E+03  -0.00687   0.01718
    1028.00   4.011993     0.1770E+03  -0.00670   0.01675
    1033.00   4.014100     0.1751E+03  -0.01144   0.02861
    1038.00   4.016197     0.1741E+03  -0.01380   0.03450
    1043.00   4.018284     0.1747E+03  -0.01236   0.03090
    1048.00   4.020361     0.1735E+03  -0.01541   0.03852
    1053.00   4.022429     0.1726E+03  -0.01770   0.04426
    1058.00   4.024486     0.1703E+03  -0.02358   0.05896
    1063.00   4.026533     0.1694E+03  -0.02571   0.06427
    1068.00   4.028571     0.1679E+03  -0.02975   0.07438
    1073.00   4.030600     0.1683E+03  -0.02873   0.07182
    1078.00   4.032619     0.1670E+03  -0.03193   0.07984
    1083.00   4.034628     0.1648E+03  -0.03772   0.09431
    1088.00   4.036629     0.1639E+03  -0.04017   0.10043
    1093.00   4.038620     0.1633E+03  -0.04178   0.10446
    1098.00   4.040603     0.1609E+03  -0.04802   0.12006
    1103.00   4.042576     0.1603E+03  -0.04968   0.12421
    1108.00   4.044539     0.1583E+03  -0.05535   0.13837
    1113.00   4.046495     0.1580E+03  -0.05594   0.13986
    1118.00   4.048442     0.1571E+03  -0.05842   0.14605
    1123.00   4.050380     0.1572E+03  -0.05826   0.14565
    1128.00   4.052309     0.1562E+03  -0.06102   0.15255
    1133.00   4.054230     0.1561E+03  -0.06140   0.15349
    1138.00   4.056142     0.1554E+03  -0.06336   0.15841
    1143.00   4.058046     0.1543E+03  -0.06624   0.16561
    1148.00   4.059942     0.1554E+03  -0.06312   0.15780
    1153.00   4.061830     0.1553E+03  -0.06356   0.15891
    1158.00   4.063708     0.1540E+03  -0.06725   0.16813
    1163.00   4.065579     0.1525E+03  -0.07149   0.17873
    1168.00   4.067443     0.1524E+03  -0.07163   0.17907
    1173.00   4.069298     0.1529E+03  -0.07038   0.17595
    1178.00   4.071145     0.1508E+03  -0.07643   0.19108
    1183.00   4.072985     0.1496E+03  -0.07963   0.19907
    1188.00   4.074817     0.1481E+03  -0.08403   0.21007
    1193.00   4.076640     0.1498E+03  -0.07912   0.19781
    1198.00   4.078457     0.1463E+03  -0.08953   0.22384
    1203.00   4.080266     0.1482E+03  -0.08394   0.20984
    1208.00   4.082067     0.1471E+03  -0.08708   0.21770
    1213.00   4.083861     0.1472E+03  -0.08685   0.21712
    1218.00   4.085648     0.1473E+03  -0.08653   0.21634
    1223.00   4.087426     0.1465E+03  -0.08884   0.22210
    1228.00   4.089198     0.1457E+03  -0.09133   0.22832
    1233.00   4.090963     0.1450E+03  -0.09348   0.23370
    1238.00   4.092721     0.1446E+03  -0.09467   0.23669
    1243.00   4.094471     0.1430E+03  -0.09940   0.24850
    1248.00   4.096214     0.1430E+03  -0.09938   0.24846
    1253.00   4.097951     0.1420E+03  -0.10251   0.25628
    1258.00   4.099681     0.1414E+03  -0.10413   0.26031
    1263.00   4.101403     0.1410E+03  -0.10557   0.26392
    1268.00   4.103119     0.1400E+03  -0.10848   0.27121
    1273.00   4.104828     0.1399E+03  -0.10879   0.27197
    1278.00   4.106531     0.1400E+03  -0.10870   0.27174
    1283.00   4.108227     0.1365E+03  -0.11946   0.29864
    1288.00   4.109916     0.1380E+03  -0.11493   0.28732
    1293.00   4.111598     0.1368E+03  -0.11853   0.29632
    1298.00   4.113275     0.1377E+03  -0.11585   0.28963
    1303.00   4.114944     0.1363E+03  -0.12007   0.30018
    1308.00   4.116608     0.1365E+03  -0.11956   0.29889
    1313.00   4.118265     0.1344E+03  -0.12621   0.31552
    1318.00   4.119915     0.1340E+03  -0.12768   0.31919
    1323.00   4.121560     0.1339E+03  -0.12776   0.31941
    1328.00   4.123198     0.1322E+03  -0.13352   0.33379
    1333.00   4.124830     0.1324E+03  -0.13279   0.33197
    1338.00   4.126456     0.1314E+03  -0.13624   0.34061
    1343.00   4.128076     0.1315E+03  -0.13581   0.33952
    1348.00   4.129690     0.1306E+03  -0.13882   0.34704
    1353.00   4.131298     0.1300E+03  -0.14085   0.35213
    1358.00   4.132900     0.1283E+03  -0.14631   0.36578
    1363.00   4.134496     0.1281E+03  -0.14725   0.36812
    1368.00   4.136086     0.1287E+03  -0.14512   0.36281
    1373.00   4.137671     0.1292E+03  -0.14344   0.35861
    1378.00   4.139249     0.1290E+03  -0.14395   0.35988
    1383.00   4.140822     0.1290E+03  -0.14407   0.36018
    1388.00   4.142389     0.1279E+03  -0.14791   0.36977
    1393.00   4.143951     0.1194E+03  -0.17777   0.44444
    1398.00   4.145507     0.1201E+03  -0.17530   0.43826
    1403.00   4.147058     0.1191E+03  -0.17861   0.44653
    1408.00   4.148602     0.1199E+03  -0.17598   0.43995
    1413.00   4.150142     0.1189E+03  -0.17939   0.44848
    1418.00   4.151676     0.1197E+03  -0.17673   0.44183
    1423.00   4.153205     0.1188E+03  -0.17988   0.44971
    1428.00   4.154728     0.1178E+03  -0.18361   0.45903
    1433.00   4.156246     0.1197E+03  -0.17644   0.44110
    1438.00   4.157759     0.1203E+03  -0.17436   0.43589
    1443.00   4.159266     0.1185E+03  -0.18117   0.45292
    1448.00   4.160769     0.1203E+03  -0.17462   0.43655
    1453.00   4.162266     0.1194E+03  -0.17760   0.44399
    1457.00   4.163460     0.1200E+03  -0.17553   0.43883
    1462.00   4.164948     0.1154E+03  -0.19260   0.48149
    1468.00   4.166726     0.1160E+03  -0.19015   0.47538
    1473.00   4.168202     0.1154E+03  -0.19264   0.48160
    1478.00   4.169674     0.1163E+03  -0.18929   0.47322
    1483.00   4.171141     0.1168E+03  -0.18715   0.46787
    1488.00   4.172603     0.1163E+03  -0.18921   0.47303
    1493.00   4.174060     0.1186E+03  -0.18061   0.45151
    1498.00   4.175512     0.1181E+03  -0.18229   0.45571
    1503.00   4.176959     0.1172E+03  -0.18587   0.46467
    1508.00   4.178401     0.1176E+03  -0.18443   0.46108
    1513.00   4.179839     0.1193E+03  -0.17790   0.44475
    1518.00   4.181272     0.1198E+03  -0.17622   0.44056
    1523.00   4.182700     0.1198E+03  -0.17621   0.44052
    1528.00   4.184123     0.1206E+03  -0.17343   0.43358
    1533.00   4.185542     0.1203E+03  -0.17439   0.43598
    1538.00   4.186956     0.1181E+03  -0.18241   0.45603
    1543.00   4.188366     0.1192E+03  -0.17830   0.44575
    1548.00   4.189771     0.1196E+03  -0.17693   0.44233
    1553.00   4.191172     0.1191E+03  -0.17883   0.44708
    1558.00   4.192567     0.1156E+03  -0.19181   0.47952
    1563.00   4.193959     0.1170E+03  -0.18643   0.46608
    1568.00   4.195346     0.1168E+03  -0.18715   0.46788
    1573.00   4.196729     0.1189E+03  -0.17960   0.44899
    1578.00   4.198107     0.1090E+03  -0.21715   0.54286
    1583.00   4.199481     0.1128E+03  -0.20247   0.50616
    1588.00   4.200850     0.1131E+03  -0.20107   0.50267
    1593.00   4.202216     0.1162E+03  -0.18966   0.47415
    1598.00   4.203577     0.1189E+03  -0.17958   0.44896
    1605.00   4.205475     0.1130E+03  -0.20162   0.50405
    1615.00   4.208173     0.1162E+03  -0.18951   0.47378
    1625.00   4.210854     0.1117E+03  -0.20678   0.51695
    1635.00   4.213518     0.1152E+03  -0.19308   0.48270
    1645.00   4.216166     0.1109E+03  -0.20994   0.52485
    1655.00   4.218798     0.1127E+03  -0.20284   0.50711
    1665.00   4.221415     0.1093E+03  -0.21590   0.53975
    1675.00   4.224015     0.1099E+03  -0.21380   0.53451
    1685.00   4.226600     0.1097E+03  -0.21438   0.53595
    1695.00   4.229170     0.1075E+03  -0.22333   0.55832
    1705.00   4.231725     0.1059E+03  -0.22993   0.57482
    1715.00   4.234264     0.1038E+03  -0.23868   0.59669
    1725.00   4.236789     0.1018E+03  -0.24710   0.61774
    1735.00   4.239300     0.9890E+02  -0.25953   0.64882
    1745.00   4.241796     0.9765E+02  -0.26505   0.66264
    1755.00   4.244277     0.9641E+02  -0.27056   0.67641
    1765.00   4.246745     0.9422E+02  -0.28057   0.70143
    1775.00   4.249198     0.9217E+02  -0.29013   0.72531
    1785.00   4.251638     0.9095E+02  -0.29588   0.73971
    1795.00   4.254065     0.8893E+02  -0.30564   0.76411
    1805.00   4.256477     0.8708E+02  -0.31480   0.78701
    1815.00   4.258877     0.8552E+02  -0.32263   0.80657
    1825.00   4.261263     0.8424E+02  -0.32916   0.82291
    1835.00   4.263636     0.8296E+02  -0.33585   0.83963
    1845.00   4.265996     0.8136E+02  -0.34430   0.86075
    1855.00   4.268344     0.8055E+02  -0.34865   0.87162
    1865.00   4.270679     0.7873E+02  -0.35854   0.89635
    1875.00   4.273001     0.7710E+02  -0.36762   0.91906
    1885.00   4.275311     0.7632E+02  -0.37204   0.93011
    1895.00   4.277609     0.7380E+02  -0.38663   0.96657
    1905.00   4.279895     0.7368E+02  -0.38734   0.96836
    1915.00   4.282169     0.7211E+02  -0.39671   0.99176
    1925.00   4.284431     0.7083E+02  -0.40451   1.01127
    1935.00   4.286681     0.6894E+02  -0.41623   1.04057
    1945.00   4.288919     0.6727E+02  -0.42687   1.06718
    1955.00   4.291147     0.6667E+02  -0.43075   1.07687
    1965.00   4.293363     0.6535E+02  -0.43947   1.09868
    1975.00   4.295567     0.6378E+02  -0.45003   1.12507
    1985.00   4.297760     0.6283E+02  -0.45653   1.14133
    1995.00   4.299943     0.6197E+02  -0.46256   1.15640
    2005.00   4.302114     0.6140E+02  -0.46652   1.16629
    2015.00   4.304275     0.6053E+02  -0.47277   1.18191
    2025.00   4.306425     0.5915E+02  -0.48275   1.20687
    2035.00   4.308564     0.5830E+02  -0.48901   1.22253
    2045.00   4.310693     0.5790E+02  -0.49203   1.23009
    2055.00   4.312812     0.5694E+02  -0.49932   1.24830
    2065.00   4.314920     0.5598E+02  -0.50665   1.26664
    2075.00   4.317018     0.5530E+02  -0.51201   1.28003
    2085.00   4.319106     0.5446E+02  -0.51861   1.29652
    2095.00   4.321184     0.5350E+02  -0.52637   1.31592
    2105.00   4.323252     0.5307E+02  -0.52987   1.32468
    2115.00   4.325311     0.5217E+02  -0.53728   1.34320
    2125.00   4.327359     0.5138E+02  -0.54390   1.35974
    2135.00   4.329398     0.5084E+02  -0.54854   1.37135
    2145.00   4.331428     0.5005E+02  -0.55533   1.38833
    2155.00   4.333447     0.4928E+02  -0.56204   1.40509
    2165.00   4.335458     0.4834E+02  -0.57038   1.42595
    2175.00   4.337460     0.4767E+02  -0.57644   1.44109
    2185.00   4.339452     0.4707E+02  -0.58197   1.45493
    2195.00   4.341434     0.4645E+02  -0.58768   1.46921
    2205.00   4.343409     0.4541E+02  -0.59757   1.49392
    2215.00   4.345374     0.4514E+02  -0.60011   1.50028
    2225.00   4.347330     0.4415E+02  -0.60980   1.52451
    2235.00   4.349277     0.4356E+02  -0.61562   1.53906
    2245.00   4.351216     0.4292E+02  -0.62202   1.55506
    2255.00   4.353147     0.4236E+02  -0.62777   1.56942
    2265.00   4.355068     0.4152E+02  -0.63647   1.59117
    2275.00   4.356981     0.4115E+02  -0.64029   1.60073
    2285.00   4.358886     0.4034E+02  -0.64900   1.62250
    2295.00   4.360783     0.3236E+02  -0.74476   1.86189
    2305.00   4.362671     0.3591E+02  -0.69951   1.74877
    2315.00   4.364551     0.3580E+02  -0.70083   1.75207
    2325.00   4.366423     0.3006E+02  -0.77670   1.94174
    2335.00   4.368287     0.3295E+02  -0.73692   1.84229
    2345.00   4.370143     0.3025E+02  -0.77394   1.93485
    2355.00   4.371991     0.2792E+02  -0.80885   2.02211
    2365.00   4.373831     0.3039E+02  -0.77203   1.93007
    2375.00   4.375664     0.2834E+02  -0.80228   2.00569
    2385.00   4.377488     0.2631E+02  -0.83467   2.08666
    2395.00   4.379306     0.2823E+02  -0.80405   2.01014
    2405.00   4.381115     0.2703E+02  -0.82280   2.05699
    2415.00   4.382917     0.2486E+02  -0.85918   2.14796
    2425.00   4.384712     0.2644E+02  -0.83241   2.08102
    2435.00   4.386499     0.2516E+02  -0.85405   2.13514
    2445.00   4.388279     0.2526E+02  -0.85230   2.13074
    2455.00   4.390052     0.2436E+02  -0.86803   2.17008
    2465.00   4.391817     0.2430E+02  -0.86906   2.17265
    2475.00   4.393575     0.2365E+02  -0.88095   2.20238
    2485.00   4.395327     0.2058E+02  -0.94126   2.35316
    2495.00   4.397071     0.1969E+02  -0.96053   2.40132
    2505.00   4.398808     0.2003E+02  -0.95293   2.38234
    2515.00   4.400538     0.1914E+02  -0.97276   2.43189
    2525.00   4.402262     0.1965E+02  -0.96125   2.40313
    2535.00   4.403978     0.1974E+02  -0.95938   2.39846
    2545.00   4.405688     0.1958E+02  -0.96299   2.40748
    2555.00   4.407391     0.1960E+02  -0.96245   2.40612
    2565.00   4.409087     0.1981E+02  -0.95784   2.39460
    2575.00   4.410777     0.2001E+02  -0.95342   2.38356
    2585.00   4.412460     0.1956E+02  -0.96327   2.40818
    2595.00   4.414137     0.1966E+02  -0.96117   2.40293
    2605.00   4.415808     0.1968E+02  -0.96072   2.40181
    2615.00   4.417472     0.1938E+02  -0.96729   2.41823
    2625.00   4.419129     0.1911E+02  -0.97344   2.43361
    2635.00   4.420781     0.1913E+02  -0.97308   2.43271
    2645.00   4.422426     0.1897E+02  -0.97665   2.44163
    2655.00   4.424065     0.1875E+02  -0.98181   2.45453
    2665.00   4.425697     0.1847E+02  -0.98822   2.47056
    2675.00   4.427324     0.1863E+02  -0.98443   2.46106
    2685.00   4.428945     0.1845E+02  -0.98882   2.47206
    2695.00   4.430559     0.1813E+02  -0.99638   2.49094
    2705.00   4.432167     0.1811E+02  -0.99674   2.49185
    2715.00   4.433770     0.1796E+02  -1.00049   2.50123
    2725.00   4.435367     0.1785E+02  -1.00301   2.50751
    2735.00   4.436957     0.1757E+02  -1.00990   2.52476
    2745.00   4.438542     0.1753E+02  -1.01087   2.52717
    2755.00   4.440122     0.1742E+02  -1.01358   2.53396
    2765.00   4.441695     0.1721E+02  -1.01882   2.54705
    2775.00   4.443263     0.1700E+02  -1.02425   2.56063
    2785.00   4.444825     0.1693E+02  -1.02593   2.56482
    2795.00   4.446382     0.1686E+02  -1.02792   2.56979
    2805.00   4.447933     0.1669E+02  -1.03233   2.58083
    2815.00   4.449478     0.1648E+02  -1.03774   2.59436
    2825.00   4.451018     0.1636E+02  -1.04084   2.60209
    2835.00   4.452553     0.1626E+02  -1.04346   2.60866
    2845.00   4.454082     0.1608E+02  -1.04840   2.62100
    2855.00   4.455606     0.1593E+02  -1.05259   2.63148
    2865.00   4.457125     0.1578E+02  -1.05648   2.64120
    2875.00   4.458638     0.1564E+02  -1.06055   2.65138
    2885.00   4.460146     0.1550E+02  -1.06429   2.66074
    2895.00   4.461648     0.1536E+02  -1.06825   2.67062
    2905.00   4.463146     0.1521E+02  -1.07260   2.68150
    2915.00   4.464639     0.1508E+02  -1.07624   2.69060
    2925.00   4.466126     0.1486E+02  -1.08263   2.70657
    2935.00   4.467608     0.1480E+02  -1.08433   2.71082
    2945.00   4.469085     0.1464E+02  -1.08930   2.72325
    2955.00   4.470557     0.1451E+02  -1.09317   2.73293
    2965.00   4.472025     0.1440E+02  -1.09649   2.74122
    2975.00   4.473487     0.1426E+02  -1.10054   2.75135
    2985.00   4.474944     0.1411E+02  -1.10528   2.76321
    2995.00   4.476397     0.1396E+02  -1.10969   2.77422
    3005.00   4.477844     0.1384E+02  -1.11350   2.78375
    3015.00   4.479287     0.1375E+02  -1.11628   2.79070
    3025.00   4.480725     0.1362E+02  -1.12063   2.80157
    3035.00   4.482159     0.1348E+02  -1.12506   2.81265
    3045.00   4.483587     0.1341E+02  -1.12728   2.81821
    3055.00   4.485011     0.1329E+02  -1.13130   2.82825
    3065.00   4.486430     0.1317E+02  -1.13508   2.83771
    3075.00   4.487845     0.1308E+02  -1.13806   2.84514
    3085.00   4.489255     0.1294E+02  -1.14286   2.85716
    3095.00   4.490661     0.1285E+02  -1.14597   2.86492
    3105.00   4.492062     0.1276E+02  -1.14886   2.87215
    3115.00   4.493458     0.1259E+02  -1.15466   2.88664
    3125.00   4.494850     0.1252E+02  -1.15706   2.89265
    3135.00   4.496238     0.1241E+02  -1.16082   2.90205
    3145.00   4.497621     0.1230E+02  -1.16484   2.91209
    3155.00   4.499000     0.1217E+02  -1.16931   2.92329
    3165.00   4.500374     0.1205E+02  -1.17362   2.93405
    3175.00   4.501744     0.1197E+02  -1.17677   2.94194
    3185.00   4.503109     0.1185E+02  -1.18083   2.95209
    3195.00   4.504471     0.1176E+02  -1.18443   2.96107
    3210.00   4.506505     0.1158E+02  -1.19089   2.97723
    3230.00   4.509202     0.1136E+02  -1.19936   2.99840
    3250.00   4.511883     0.1114E+02  -1.20765   3.01913
    3270.00   4.514548     0.1092E+02  -1.21635   3.04086
    3290.00   4.517196     0.1070E+02  -1.22549   3.06374
    3310.00   4.519828     0.1050E+02  -1.23365   3.08413
    3330.00   4.522444     0.1028E+02  -1.24269   3.10671
    3350.00   4.525045     0.1009E+02  -1.25065   3.12663
    3370.00   4.527630     0.9885E+01  -1.25974   3.14934
    3390.00   4.530200     0.9676E+01  -1.26901   3.17254
    3410.00   4.532754     0.9471E+01  -1.27831   3.19579
    3430.00   4.535294     0.9299E+01  -1.28625   3.21562
    3450.00   4.537819     0.9116E+01  -1.29489   3.23722
    3470.00   4.540329     0.8927E+01  -1.30401   3.26003
    3490.00   4.542826     0.8749E+01  -1.31277   3.28193
    3510.00   4.545307     0.8578E+01  -1.32133   3.30333
    3530.00   4.547775     0.8392E+01  -1.33083   3.32706
    3550.00   4.550228     0.8233E+01  -1.33912   3.34780
    3570.00   4.552669     0.8066E+01  -1.34807   3.37017
    3590.00   4.555095     0.7907E+01  -1.35672   3.39179
    3610.00   4.557508     0.7761E+01  -1.36479   3.41196
    3630.00   4.559907     0.7605E+01  -1.37360   3.43399
    3650.00   4.562293     0.7442E+01  -1.38300   3.45749
    3670.00   4.564666     0.7292E+01  -1.39186   3.47965
    3690.00   4.567026     0.7130E+01  -1.40162   3.50405
    3710.00   4.569374     0.6984E+01  -1.41062   3.52655
    3730.00   4.571709     0.6867E+01  -1.41794   3.54484
    3750.00   4.574031     0.6708E+01  -1.42811   3.57027
    3770.00   4.576342     0.6604E+01  -1.43492   3.58729
    3790.00   4.578639     0.6472E+01  -1.44365   3.60912
    3810.00   4.580925     0.6354E+01  -1.45169   3.62923
    3830.00   4.583199     0.6240E+01  -1.45953   3.64883
    3850.00   4.585461     0.6123E+01  -1.46774   3.66935
    3870.00   4.587711     0.5991E+01  -1.47722   3.69306
    3890.00   4.589950     0.5883E+01  -1.48507   3.71268
    3910.00   4.592176     0.5778E+01  -1.49296   3.73239
    3930.00   4.594393     0.5669E+01  -1.50122   3.75305
    3950.00   4.596597     0.5546E+01  -1.51070   3.77675
    3970.00   4.598790     0.5448E+01  -1.51845   3.79612
    3990.00   4.600973     0.5328E+01  -1.52812   3.82030
    4010.00   4.603145     0.5242E+01  -1.53524   3.83809
    4030.00   4.605305     0.5154E+01  -1.54257   3.85642
    4050.00   4.607455     0.5050E+01  -1.55144   3.87860
    4070.00   4.609594     0.4963E+01  -1.55899   3.89748
    4090.00   4.611723     0.4873E+01  -1.56688   3.91719
    4110.00   4.613842     0.4790E+01  -1.57435   3.93587
    4130.00   4.615950     0.4711E+01  -1.58155   3.95388
    4150.00   4.618048     0.4626E+01  -1.58949   3.97371
    4170.00   4.620136     0.4547E+01  -1.59699   3.99248
    4190.00   4.622214     0.4465E+01  -1.60485   4.01211
    4210.00   4.624282     0.4384E+01  -1.61288   4.03219
    4230.00   4.626340     0.4326E+01  -1.61867   4.04666
    4250.00   4.628389     0.4245E+01  -1.62687   4.06718
    4270.00   4.630428     0.4180E+01  -1.63354   4.08385
    4290.00   4.632457     0.4001E+01  -1.65252   4.13131
    4310.00   4.634478     0.3817E+01  -1.67293   4.18233
    4330.00   4.636488     0.3800E+01  -1.67494   4.18736
    4350.00   4.638489     0.3649E+01  -1.69250   4.23125
    4370.00   4.640481     0.3555E+01  -1.70382   4.25954
    4390.00   4.642465     0.3483E+01  -1.71271   4.28178
    4410.00   4.644439     0.3360E+01  -1.72837   4.32093
    4430.00   4.646404     0.3309E+01  -1.73496   4.33739
    4450.00   4.648360     0.3251E+01  -1.74273   4.35683
    4470.00   4.650308     0.3148E+01  -1.75661   4.39153
    4490.00   4.652246     0.3136E+01  -1.75837   4.39592
    4510.00   4.654177     0.3062E+01  -1.76870   4.42174
    4530.00   4.656098     0.2989E+01  -1.77918   4.44795
    4550.00   4.658011     0.2968E+01  -1.78219   4.45547
    4570.00   4.659916     0.2930E+01  -1.78777   4.46942
    4590.00   4.661813     0.2847E+01  -1.80032   4.50081
    4610.00   4.663701     0.2842E+01  -1.80108   4.50269
    4630.00   4.665581     0.2789E+01  -1.80927   4.52319
    4650.00   4.667453     0.2758E+01  -1.81413   4.53533
    4670.00   4.669317     0.2736E+01  -1.81756   4.54391
    4690.00   4.671173     0.2686E+01  -1.82560   4.56399
    4710.00   4.673021     0.2642E+01  -1.83284   4.58210
    4730.00   4.674861     0.2636E+01  -1.83374   4.58434
    4750.00   4.676694     0.2581E+01  -1.84290   4.60726
    4770.00   4.678518     0.2547E+01  -1.84871   4.62177
    4790.00   4.680336     0.2520E+01  -1.85323   4.63308
    4810.00   4.682145     0.2464E+01  -1.86312   4.65779
    4830.00   4.683947     0.2462E+01  -1.86342   4.65856
    4850.00   4.685741     0.2419E+01  -1.87114   4.67786
    4870.00   4.687529     0.2374E+01  -1.87914   4.69786
    4890.00   4.689309     0.2342E+01  -1.88508   4.71270
    4910.00   4.691082     0.2313E+01  -1.89053   4.72633
    4930.00   4.692847     0.2278E+01  -1.89724   4.74309
    4950.00   4.694605     0.2241E+01  -1.90433   4.76083
    4970.00   4.696356     0.2222E+01  -1.90803   4.77008
    4990.00   4.698101     0.2189E+01  -1.91454   4.78634
    5010.00   4.699838     0.2162E+01  -1.91980   4.79949
    5030.00   4.701568     0.2134E+01  -1.92557   4.81393
    5050.00   4.703291     0.2092E+01  -1.93417   4.83544
    5070.00   4.705008     0.2073E+01  -1.93810   4.84526
    5090.00   4.706717     0.2047E+01  -1.94369   4.85923
    5110.00   4.708421     0.2012E+01  -1.95111   4.87777
    5130.00   4.710117     0.1996E+01  -1.95459   4.88647
    5150.00   4.711807     0.1962E+01  -1.96198   4.90496
    5170.00   4.713490     0.1950E+01  -1.96466   4.91165
    5190.00   4.715167     0.1916E+01  -1.97222   4.93055
    5210.00   4.716838     0.1895E+01  -1.97707   4.94268
    5230.00   4.718502     0.1864E+01  -1.98426   4.96064
    5250.00   4.720160     0.1847E+01  -1.98818   4.97044
    5270.00   4.721810     0.1835E+01  -1.99109   4.97772
    5290.00   4.723455     0.1797E+01  -2.00021   5.00053
    5310.00   4.725095     0.1774E+01  -2.00579   5.01449
    5330.00   4.726727     0.1757E+01  -2.00997   5.02491
    5350.00   4.728354     0.1736E+01  -2.01526   5.03815
    5370.00   4.729974     0.1716E+01  -2.02025   5.05063
    5390.00   4.731589     0.1696E+01  -2.02531   5.06327
    5410.00   4.733197     0.1675E+01  -2.03057   5.07644
    5430.00   4.734800     0.1647E+01  -2.03805   5.09513
    5450.00   4.736397     0.1636E+01  -2.04084   5.10211
    5470.00   4.737988     0.1611E+01  -2.04771   5.11928
    5490.00   4.739573     0.1593E+01  -2.05241   5.13102
    5510.00   4.741152     0.1572E+01  -2.05816   5.14540
    5530.00   4.742725     0.1570E+01  -2.05880   5.14701
    5550.00   4.744293     0.1534E+01  -2.06902   5.17254
    5570.00   4.745855     0.1527E+01  -2.07097   5.17741
    5590.00   4.747412     0.1502E+01  -2.07792   5.19479
    5610.00   4.748963     0.1489E+01  -2.08167   5.20418
    5630.00   4.750508     0.1464E+01  -2.08905   5.22262
    5650.00   4.752048     0.1455E+01  -2.09197   5.22993
    5670.00   4.753583     0.1437E+01  -2.09727   5.24317
    5690.00   4.755112     0.1413E+01  -2.10450   5.26125
    5710.00   4.756636     0.1405E+01  -2.10708   5.26770
    5730.00   4.758155     0.1387E+01  -2.11256   5.28140
    5750.00   4.759668     0.1371E+01  -2.11775   5.29438
    5770.00   4.761176     0.1353E+01  -2.12344   5.30859
    5790.00   4.762679     0.1342E+01  -2.12704   5.31759
    5810.00   4.764176     0.1322E+01  -2.13349   5.33372
    5830.00   4.765669     0.1308E+01  -2.13824   5.34560
    5850.00   4.767156     0.1293E+01  -2.14317   5.35792
    5870.00   4.768638     0.1274E+01  -2.14960   5.37401
    5890.00   4.770115     0.1260E+01  -2.15432   5.38579
    5910.00   4.771587     0.1246E+01  -2.15904   5.39760
    5930.00   4.773055     0.1233E+01  -2.16375   5.40936
    5950.00   4.774517     0.1216E+01  -2.16968   5.42421
    5970.00   4.775974     0.1205E+01  -2.17368   5.43420
    5990.00   4.777427     0.1191E+01  -2.17879   5.44698
    6010.00   4.778874     0.1177E+01  -2.18388   5.45969
    6030.00   4.780317     0.1163E+01  -2.18901   5.47253
    6050.00   4.781755     0.1147E+01  -2.19503   5.48758
    6070.00   4.783189     0.1134E+01  -2.19992   5.49979
    6090.00   4.784617     0.1121E+01  -2.20506   5.51264
    6110.00   4.786041     0.1107E+01  -2.21056   5.52639
    6130.00   4.787460     0.1096E+01  -2.21489   5.53722
    6150.00   4.788875     0.1084E+01  -2.21960   5.54900
    6170.00   4.790285     0.1073E+01  -2.22406   5.56015
    6190.00   4.791691     0.1060E+01  -2.22924   5.57309
    6210.00   4.793092     0.1049E+01  -2.23387   5.58468
    6230.00   4.794488     0.1035E+01  -2.23957   5.59893
    6250.00   4.795880     0.1022E+01  -2.24516   5.61290
    6270.00   4.797267     0.1011E+01  -2.25012   5.62529
    6290.00   4.798651     0.9999E+00  -2.25473   5.63683
    6310.00   4.800029     0.9880E+00  -2.25995   5.64988
    6330.00   4.801404     0.9789E+00  -2.26396   5.65989
    6350.00   4.802773     0.9667E+00  -2.26943   5.67357
    6370.00   4.804139     0.9576E+00  -2.27351   5.68377
    6390.00   4.805501     0.9453E+00  -2.27913   5.69783
    6420.00   4.807535     0.9297E+00  -2.28636   5.71591
    6460.00   4.810232     0.9083E+00  -2.29647   5.74116
    6500.00   4.812913     0.8883E+00  -2.30613   5.76534
    6540.00   4.815578     0.8686E+00  -2.31589   5.78973
    6580.00   4.818226     0.8500E+00  -2.32526   5.81316
    6620.00   4.820858     0.8309E+00  -2.33514   5.83786
    6660.00   4.823474     0.8129E+00  -2.34468   5.86169
    6700.00   4.826075     0.7953E+00  -2.35415   5.88539
    6740.00   4.828660     0.7777E+00  -2.36392   5.90979
    6780.00   4.831230     0.7610E+00  -2.37334   5.93334
    6820.00   4.833784     0.7445E+00  -2.38286   5.95716
    6860.00   4.836324     0.7288E+00  -2.39208   5.98021
    6900.00   4.838849     0.7130E+00  -2.40159   6.00397
    6940.00   4.841359     0.6979E+00  -2.41089   6.02722
    6980.00   4.843855     0.6833E+00  -2.42013   6.05032
    7020.00   4.846337     0.6686E+00  -2.42956   6.07391
    7060.00   4.848804     0.6548E+00  -2.43858   6.09646
    7100.00   4.851258     0.6411E+00  -2.44779   6.11948
    7140.00   4.853698     0.6279E+00  -2.45685   6.14212
    7180.00   4.856124     0.6148E+00  -2.46600   6.16500
    7220.00   4.858537     0.6022E+00  -2.47500   6.18749
    7260.00   4.860937     0.5897E+00  -2.48406   6.21016
    7300.00   4.863323     0.5777E+00  -2.49297   6.23242
    7340.00   4.865696     0.5659E+00  -2.50199   6.25497
    7380.00   4.868056     0.5546E+00  -2.51076   6.27690
    7420.00   4.870404     0.5430E+00  -2.51988   6.29971
    7460.00   4.872739     0.5321E+00  -2.52873   6.32182
    7500.00   4.875061     0.5216E+00  -2.53736   6.34341
    7540.00   4.877371     0.5111E+00  -2.54616   6.36540
    7580.00   4.879669     0.5014E+00  -2.55453   6.38634
    7620.00   4.881955     0.4915E+00  -2.56317   6.40792
    7660.00   4.884229     0.4819E+00  -2.57175   6.42936
    7700.00   4.886491     0.4724E+00  -2.58037   6.45093
    7740.00   4.888741     0.4633E+00  -2.58881   6.47202
    7780.00   4.890980     0.4544E+00  -2.59725   6.49311
    7820.00   4.893207     0.4457E+00  -2.60569   6.51424
    7860.00   4.895422     0.4372E+00  -2.61406   6.53516
    7900.00   4.897627     0.4288E+00  -2.62242   6.55605
    7940.00   4.899820     0.4207E+00  -2.63073   6.57683
    7980.00   4.902003     0.4128E+00  -2.63897   6.59743
    8020.00   4.904174     0.4049E+00  -2.64736   6.61839
    8060.00   4.906335     0.3973E+00  -2.65554   6.63886
    8100.00   4.908485     0.3900E+00  -2.66359   6.65898
    8140.00   4.910625     0.3827E+00  -2.67179   6.67948
    8180.00   4.912753     0.3758E+00  -2.67977   6.69942
    8220.00   4.914872     0.3689E+00  -2.68779   6.71947
    8260.00   4.916980     0.3621E+00  -2.69582   6.73956
    8300.00   4.919078     0.3556E+00  -2.70378   6.75946
    8340.00   4.921166     0.3490E+00  -2.71185   6.77961
    8380.00   4.923244     0.3427E+00  -2.71975   6.79939
    8420.00   4.925312     0.3367E+00  -2.72749   6.81872
    8460.00   4.927370     0.3306E+00  -2.73536   6.83841
    8500.00   4.929419     0.3248E+00  -2.74314   6.85785
    8540.00   4.931458     0.3190E+00  -2.75087   6.87718
    8580.00   4.933487     0.3134E+00  -2.75857   6.89642
    8620.00   4.935507     0.3079E+00  -2.76625   6.91562
    8660.00   4.937518     0.3026E+00  -2.77386   6.93465
    8700.00   4.939519     0.2973E+00  -2.78150   6.95374
    8740.00   4.941511     0.2922E+00  -2.78909   6.97272
    8780.00   4.943495     0.2871E+00  -2.79666   6.99165
    8820.00   4.945469     0.2821E+00  -2.80426   7.01065
    8860.00   4.947433     0.2773E+00  -2.81173   7.02931
    8900.00   4.949390     0.2726E+00  -2.81923   7.04807
    8940.00   4.951338     0.2680E+00  -2.82657   7.06643
    8980.00   4.953277     0.2634E+00  -2.83412   7.08531
    9020.00   4.955207     0.2590E+00  -2.84133   7.10333
    9060.00   4.957129     0.2547E+00  -2.84862   7.12154
    9100.00   4.959042     0.2503E+00  -2.85618   7.14044
    9140.00   4.960946     0.2463E+00  -2.86329   7.15822
    9180.00   4.962843     0.2422E+00  -2.87052   7.17630
    9220.00   4.964731     0.2383E+00  -2.87762   7.19406
    9260.00   4.966611     0.2344E+00  -2.88483   7.21207
    9300.00   4.968483     0.2305E+00  -2.89197   7.22992
    9340.00   4.970347     0.2268E+00  -2.89911   7.24777
    9380.00   4.972203     0.2231E+00  -2.90618   7.26545
    9420.00   4.974051     0.2195E+00  -2.91325   7.28312
    9460.00   4.975891     0.2160E+00  -2.92033   7.30081
    9500.00   4.977724     0.2125E+00  -2.92732   7.31831
    9540.00   4.979548     0.2091E+00  -2.93429   7.33573
    9580.00   4.981365     0.2058E+00  -2.94123   7.35307
    9620.00   4.983175     0.2026E+00  -2.94817   7.37042
    9660.00   4.984977     0.1994E+00  -2.95504   7.38760
    9700.00   4.986772     0.1962E+00  -2.96190   7.40475
    9740.00   4.988559     0.1931E+00  -2.96899   7.42247
    9780.00   4.990339     0.1901E+00  -2.97564   7.43911
    9820.00   4.992111     0.1872E+00  -2.98236   7.45591
    9860.00   4.993877     0.1843E+00  -2.98913   7.47282
    9900.00   4.995635     0.1815E+00  -2.99584   7.48961
    9940.00   4.997386     0.1787E+00  -3.00260   7.50649
    9980.00   4.999130     0.1760E+00  -3.00927   7.52318
   10020.00   5.000868     0.1733E+00  -3.01593   7.53982
   20000.00   5.301030     0.1183E-01  -4.18164  10.45409
   40000.00   5.602060     0.7669E-03  -5.36998  13.42495
   60000.00   5.778151     0.1530E-03  -6.07013  15.17531
   80000.00   5.903090     0.4857E-04  -6.56834  16.42084
  100000.00   6.000000     0.1992E-04  -6.95540  17.38851
  120000.00   6.079181     0.9610E-05  -7.27200  18.18001
  140000.00   6.146128     0.5186E-05  -7.53988  18.84970
  160000.00   6.204120     0.3039E-05  -7.77204  19.43011
