age =   13.0    [Fe/H] =   -0.25

wavele(nm) log wave(A)   Hlam       log(Hlam/Hlam(V))  Hlam(mag(V)) 
      89.50   2.951823     0.8072E-13 -15.29527  38.23818
      90.50   2.956649     0.1702E-12 -14.97115  37.42788
      91.50   2.961421     0.2671E-12 -14.77551  36.93878
      92.50   2.966142     0.4853E-10 -12.51624  31.29061
      93.50   2.970812     0.6711E-10 -12.37544  30.93860
      94.50   2.975432     0.9619E-10 -12.21911  30.54776
      95.50   2.980003     0.1439E-09 -12.04426  30.11065
      96.50   2.984527     0.2077E-09 -11.88488  29.71220
      97.50   2.989005     0.2738E-09 -11.76488  29.41221
      98.50   2.993436     0.3864E-09 -11.61520  29.03800
      99.50   2.997823     0.5242E-09 -11.48274  28.70686
     100.50   3.002166     0.7663E-09 -11.31786  28.29465
     101.50   3.006466     0.1031E-08 -11.18913  27.97282
     102.50   3.010724     0.1166E-08 -11.13547  27.83868
     103.50   3.014940     0.1913E-08 -10.92051  27.30128
     104.50   3.019116     0.2626E-08 -10.78293  26.95732
     105.50   3.023252     0.3328E-08 -10.68000  26.70000
     106.50   3.027350     0.4460E-08 -10.55289  26.38223
     107.50   3.031409     0.5979E-08 -10.42560  26.06400
     108.50   3.035430     0.8013E-08 -10.29846  25.74615
     109.50   3.039414     0.1002E-07 -10.20135  25.50338
     110.50   3.043362     0.5989E-07  -9.42486  23.56216
     111.50   3.047275     0.1092E-06  -9.16404  22.91011
     112.50   3.051152     0.1661E-06  -8.98191  22.45478
     113.50   3.054996     0.2527E-06  -8.79958  21.99896
     114.50   3.058805     0.3350E-06  -8.67716  21.69291
     115.50   3.062582     0.3856E-06  -8.61610  21.54024
     116.50   3.066326     0.5115E-06  -8.49336  21.23339
     117.50   3.070038     0.6498E-06  -8.38944  20.97360
     118.50   3.073718     0.6746E-06  -8.37319  20.93298
     119.50   3.077368     0.5070E-06  -8.49721  21.24302
     120.50   3.080987     0.4682E-06  -8.53182  21.32955
     121.50   3.084576     0.9455E-07  -9.22657  23.06643
     122.50   3.088136     0.6187E-06  -8.41074  21.02685
     123.50   3.091667     0.1539E-05  -8.01495  20.03737
     124.50   3.095169     0.2517E-05  -7.80130  19.50325
     125.50   3.098644     0.3329E-05  -7.67995  19.19987
     126.50   3.102091     0.3686E-05  -7.63573  19.08932
     127.50   3.105510     0.4746E-05  -7.52593  18.81482
     128.50   3.108903     0.5734E-05  -7.44375  18.60938
     129.50   3.112270     0.6952E-05  -7.36015  18.40038
     130.50   3.115611     0.7487E-05  -7.32793  18.31981
     131.50   3.118926     0.9464E-05  -7.22617  18.06542
     132.50   3.122216     0.1019E-04  -7.19418  17.98545
     133.50   3.125481     0.1136E-04  -7.14674  17.86685
     134.50   3.128722     0.1341E-04  -7.07468  17.68670
     135.50   3.131939     0.1540E-04  -7.01476  17.53689
     136.50   3.135133     0.1676E-04  -6.97795  17.44488
     137.50   3.138303     0.1805E-04  -6.94572  17.36430
     138.50   3.141450     0.1977E-04  -6.90616  17.26540
     139.50   3.144574     0.2236E-04  -6.85273  17.13183
     140.50   3.147676     0.2668E-04  -6.77606  16.94016
     141.50   3.150756     0.3027E-04  -6.72129  16.80323
     142.50   3.153815     0.3431E-04  -6.66682  16.66706
     143.50   3.156852     0.4018E-04  -6.59826  16.49564
     144.20   3.158965     0.5211E-04  -6.48530  16.21325
     144.70   3.160469     0.4667E-04  -6.53321  16.33302
     145.50   3.162863     0.5508E-04  -6.46122  16.15305
     146.50   3.165838     0.6866E-04  -6.36551  15.91377
     147.50   3.168792     0.7789E-04  -6.31077  15.77692
     148.50   3.171726     0.8391E-04  -6.27844  15.69611
     149.50   3.174641     0.1096E-03  -6.16229  15.40573
     150.50   3.177536     0.1323E-03  -6.08057  15.20142
     151.20   3.179552     0.1020E-03  -6.19351  15.48376
     151.70   3.180986     0.1282E-03  -6.09422  15.23554
     152.50   3.183270     0.2734E-03  -5.76548  14.41370
     153.50   3.186108     0.4240E-03  -5.57487  13.93717
     154.50   3.188928     0.3585E-03  -5.64772  14.11930
     155.50   3.191730     0.5536E-03  -5.45902  13.64755
     156.50   3.194514     0.5254E-03  -5.48173  13.70431
     157.50   3.197281     0.9080E-03  -5.24417  13.11041
     158.50   3.200029     0.1092E-02  -5.16388  12.90969
     159.50   3.202761     0.1269E-02  -5.09869  12.74672
     160.50   3.205475     0.1356E-02  -5.06986  12.67465
     161.50   3.208173     0.1522E-02  -5.01990  12.54975
     162.50   3.210853     0.1674E-02  -4.97855  12.44637
     163.50   3.213518     0.1974E-02  -4.90694  12.26736
     164.50   3.216166     0.2725E-02  -4.76682  11.91704
     165.50   3.218798     0.1781E-02  -4.95168  12.37920
     166.50   3.221414     0.3120E-02  -4.70803  11.77008
     167.20   3.223236     0.2256E-02  -4.84883  12.12209
     167.70   3.224533     0.8397E-02  -4.27812  10.69530
     168.50   3.226600     0.8924E-02  -4.25167  10.62918
     169.50   3.229170     0.1048E-01  -4.18203  10.45507
     170.50   3.231725     0.1205E-01  -4.12115  10.30289
     171.50   3.234264     0.1461E-01  -4.03772  10.09429
     172.50   3.236789     0.1813E-01  -3.94381   9.85952
     173.50   3.239300     0.2366E-01  -3.82822   9.57055
     174.50   3.241796     0.3048E-01  -3.71823   9.29557
     175.50   3.244277     0.4477E-01  -3.55121   8.87803
     176.50   3.246745     0.3577E-01  -3.64873   9.12183
     177.50   3.249198     0.4348E-01  -3.56398   8.90996
     178.50   3.251638     0.5784E-01  -3.44001   8.60002
     179.50   3.254065     0.8055E-01  -3.29616   8.24040
     180.50   3.256477     0.8206E-01  -3.28811   8.22026
     181.50   3.258877     0.6966E-01  -3.35925   8.39814
     182.50   3.261263     0.8823E-01  -3.25663   8.14157
     183.50   3.263636     0.9090E-01  -3.24369   8.10921
     184.50   3.265996     0.5425E-01  -3.46780   8.66950
     185.50   3.268344     0.1046E+00  -3.18285   7.95712
     186.50   3.270679     0.1365E+00  -3.06718   7.66795
     187.50   3.273001     0.1405E+00  -3.05446   7.63614
     188.50   3.275311     0.1501E+00  -3.02577   7.56443
     189.50   3.277609     0.2016E+00  -2.89764   7.24411
     190.50   3.279895     0.1897E+00  -2.92426   7.31066
     191.50   3.282169     0.2150E+00  -2.86984   7.17459
     192.50   3.284431     0.1845E+00  -2.93633   7.34082
     193.50   3.286681     0.9997E-01  -3.20236   8.00590
     194.50   3.288920     0.2660E+00  -2.77732   6.94331
     195.50   3.291147     0.2789E+00  -2.75677   6.89194
     196.70   3.293804     0.3763E+00  -2.62668   6.56670
     197.60   3.295787     0.3200E+00  -2.69711   6.74278
     198.40   3.297542     0.4112E+00  -2.58817   6.47044
     199.50   3.299943     0.4497E+00  -2.54932   6.37330
     200.50   3.302114     0.4147E+00  -2.58451   6.46127
     201.50   3.304275     0.4566E+00  -2.54269   6.35674
     202.50   3.306425     0.3277E+00  -2.68674   6.71686
     203.50   3.308564     0.5136E+00  -2.49158   6.22895
     204.50   3.310693     0.6042E+00  -2.42108   6.05271
     205.50   3.312812     0.5839E+00  -2.43590   6.08975
     206.50   3.314920     0.5637E+00  -2.45118   6.12795
     207.40   3.316809     0.6382E+00  -2.39728   5.99319
     207.80   3.317646     0.1739E+01  -1.96204   4.90510
     208.50   3.319106     0.2281E+01  -1.84421   4.61051
     209.50   3.321184     0.2051E+01  -1.89026   4.72564
     210.50   3.323252     0.1963E+01  -1.90931   4.77328
     211.50   3.325310     0.2363E+01  -1.82878   4.57195
     212.50   3.327359     0.1983E+01  -1.90489   4.76223
     213.50   3.329398     0.1932E+01  -1.91624   4.79061
     214.50   3.331427     0.2641E+01  -1.78049   4.45122
     215.50   3.333447     0.2534E+01  -1.79848   4.49619
     216.50   3.335458     0.2089E+01  -1.88234   4.70584
     217.50   3.337459     0.2111E+01  -1.87778   4.69446
     218.50   3.339452     0.3001E+01  -1.72492   4.31229
     219.50   3.341434     0.2893E+01  -1.74095   4.35236
     220.50   3.343409     0.2827E+01  -1.75087   4.37717
     221.50   3.345374     0.2029E+01  -1.89499   4.73748
     222.50   3.347330     0.2634E+01  -1.78156   4.45389
     223.50   3.349277     0.3744E+01  -1.62889   4.07222
     224.50   3.351216     0.3540E+01  -1.65327   4.13318
     225.50   3.353147     0.2475E+01  -1.80860   4.52149
     226.50   3.355068     0.2153E+01  -1.86916   4.67290
     227.50   3.356982     0.2353E+01  -1.83066   4.57664
     228.50   3.358886     0.3661E+01  -1.63860   4.09649
     229.50   3.360783     0.2842E+01  -1.74866   4.37166
     230.50   3.362671     0.3726E+01  -1.63102   4.07754
     231.50   3.364551     0.3036E+01  -1.71993   4.29983
     232.50   3.366423     0.2503E+01  -1.80369   4.50923
     233.50   3.368287     0.2062E+01  -1.88801   4.72002
     234.50   3.370143     0.1221E+01  -2.11558   5.28896
     235.50   3.371991     0.2876E+01  -1.74344   4.35859
     236.50   3.373831     0.1434E+01  -2.04568   5.11419
     237.50   3.375664     0.2040E+01  -1.89256   4.73141
     238.50   3.377488     0.1035E+01  -2.18715   5.46788
     239.50   3.379306     0.1405E+01  -2.05461   5.13653
     240.50   3.381115     0.1443E+01  -2.04298   5.10745
     241.50   3.382917     0.1807E+01  -1.94535   4.86339
     242.50   3.384712     0.3671E+01  -1.63749   4.09371
     243.50   3.386499     0.3708E+01  -1.63308   4.08270
     244.50   3.388279     0.4623E+01  -1.53729   3.84324
     245.50   3.390052     0.4995E+01  -1.50371   3.75928
     246.50   3.391817     0.4058E+01  -1.59389   3.98472
     247.50   3.393575     0.3424E+01  -1.66771   4.16927
     248.50   3.395326     0.1522E+01  -2.01974   5.04936
     249.50   3.397071     0.2302E+01  -1.84021   4.60052
     250.50   3.398808     0.4020E+01  -1.59801   3.99502
     251.30   3.400192     0.1359E+01  -2.06892   5.17230
     251.80   3.401056     0.9064E+00  -2.24491   5.61226
     252.50   3.402261     0.1120E+01  -2.15305   5.38262
     253.50   3.403978     0.2567E+01  -1.79277   4.48193
     254.50   3.405688     0.2735E+01  -1.76530   4.41324
     255.50   3.407391     0.5947E+01  -1.42794   3.56985
     256.50   3.409087     0.4104E+01  -1.58906   3.97266
     257.50   3.410777     0.5620E+01  -1.45250   3.63126
     258.50   3.412461     0.4806E+01  -1.52043   3.80108
     259.50   3.414137     0.4207E+01  -1.57824   3.94561
     260.50   3.415808     0.3471E+01  -1.66173   4.15432
     261.50   3.417472     0.3040E+01  -1.71934   4.29835
     262.50   3.419129     0.4503E+01  -1.54875   3.87187
     263.50   3.420781     0.8991E+01  -1.24841   3.12103
     264.50   3.422426     0.1239E+02  -1.10914   2.77286
     265.50   3.424065     0.1811E+02  -0.94427   2.36068
     266.50   3.425697     0.1111E+02  -1.15653   2.89132
     267.50   3.427324     0.1269E+02  -1.09876   2.74691
     268.50   3.428944     0.1516E+02  -1.02149   2.55373
     269.50   3.430559     0.1026E+02  -1.19106   2.97765
     270.50   3.432167     0.1315E+02  -1.08332   2.70829
     271.50   3.433770     0.8966E+01  -1.24965   3.12414
     272.50   3.435366     0.6523E+01  -1.38776   3.46941
     273.50   3.436957     0.8917E+01  -1.25201   3.13002
     274.50   3.438542     0.4685E+01  -1.53150   3.82876
     275.50   3.440122     0.6971E+01  -1.35894   3.39735
     276.50   3.441695     0.9669E+01  -1.21686   3.04215
     277.50   3.443263     0.1022E+02  -1.19258   2.98145
     278.50   3.444825     0.5427E+01  -1.46770   3.66924
     279.50   3.446382     0.2126E+01  -1.87460   4.68651
     280.50   3.447933     0.2676E+01  -1.77481   4.43702
     281.50   3.449478     0.8666E+01  -1.26444   3.16110
     282.50   3.451018     0.1328E+02  -1.07893   2.69733
     283.50   3.452553     0.1204E+02  -1.12148   2.80371
     284.50   3.454082     0.7582E+01  -1.32245   3.30611
     285.50   3.455606     0.3638E+01  -1.64141   4.10351
     286.50   3.457125     0.1146E+02  -1.14299   2.85747
     287.50   3.458638     0.1703E+02  -0.97106   2.42764
     288.50   3.460146     0.1546E+02  -1.01304   2.53259
     289.50   3.461648     0.1994E+02  -0.90241   2.25601
     291.00   3.463893     0.2818E+02  -0.75224   1.88060
     293.00   3.466868     0.2547E+02  -0.79617   1.99043
     295.00   3.469822     0.2423E+02  -0.81791   2.04478
     297.00   3.472756     0.2540E+02  -0.79737   1.99342
     299.00   3.475671     0.2657E+02  -0.77786   1.94464
     301.00   3.478566     0.2670E+02  -0.77569   1.93923
     303.00   3.481443     0.2893E+02  -0.74082   1.85206
     305.00   3.484300     0.3032E+02  -0.72056   1.80141
     307.00   3.487138     0.3112E+02  -0.70916   1.77290
     309.00   3.489959     0.2843E+02  -0.74847   1.87119
     311.00   3.492760     0.3367E+02  -0.67502   1.68756
     313.00   3.495544     0.3055E+02  -0.71719   1.79297
     315.00   3.498311     0.3020E+02  -0.72222   1.80554
     317.00   3.501059     0.3441E+02  -0.66556   1.66391
     319.00   3.503791     0.2984E+02  -0.72746   1.81865
     321.00   3.506505     0.3324E+02  -0.68054   1.70135
     323.00   3.509202     0.2851E+02  -0.74728   1.86819
     325.00   3.511883     0.4078E+02  -0.59178   1.47946
     327.00   3.514548     0.4762E+02  -0.52448   1.31121
     329.00   3.517196     0.4657E+02  -0.53409   1.33522
     331.00   3.519828     0.4297E+02  -0.56903   1.42257
     333.00   3.522444     0.4446E+02  -0.55423   1.38558
     335.00   3.525045     0.4294E+02  -0.56937   1.42343
     337.00   3.527630     0.3079E+02  -0.71386   1.78465
     339.00   3.530200     0.3647E+02  -0.64031   1.60077
     341.00   3.532754     0.3807E+02  -0.62170   1.55426
     343.00   3.535294     0.4145E+02  -0.58466   1.46166
     345.00   3.537819     0.4479E+02  -0.55106   1.37765
     347.00   3.540329     0.4681E+02  -0.53191   1.32979
     349.00   3.542825     0.5245E+02  -0.48247   1.20617
     351.00   3.545307     0.5588E+02  -0.45499   1.13748
     353.00   3.547775     0.5012E+02  -0.50225   1.25562
     355.00   3.550228     0.5733E+02  -0.44385   1.10963
     357.00   3.552668     0.4177E+02  -0.58136   1.45339
     359.00   3.555094     0.4280E+02  -0.57083   1.42708
     361.00   3.557507     0.5314E+02  -0.47681   1.19202
     363.00   3.559907     0.5466E+02  -0.46460   1.16149
     364.00   3.561101     0.5605E+02  -0.45362   1.13406
     365.00   3.562293     0.6060E+02  -0.41980   1.04950
     367.00   3.564666     0.6478E+02  -0.39081   0.97703
     369.00   3.567026     0.5831E+02  -0.43647   1.09118
     371.00   3.569374     0.6135E+02  -0.41443   1.03608
     373.00   3.571709     0.4024E+02  -0.59762   1.49405
     375.00   3.574031     0.4614E+02  -0.53819   1.34547
     377.00   3.576341     0.6051E+02  -0.42038   1.05095
     379.00   3.578639     0.6237E+02  -0.40728   1.01821
     381.00   3.580925     0.5892E+02  -0.43201   1.08003
     383.00   3.583199     0.3301E+02  -0.68360   1.70899
     385.00   3.585461     0.4663E+02  -0.53353   1.33383
     387.00   3.587711     0.4569E+02  -0.54239   1.35597
     389.00   3.589950     0.5650E+02  -0.45018   1.12545
     391.00   3.592177     0.6844E+02  -0.36695   0.91736
     393.00   3.594393     0.3304E+02  -0.68319   1.70797
     395.00   3.596597     0.5999E+02  -0.42416   1.06040
     397.00   3.598790     0.4122E+02  -0.58712   1.46781
     399.00   3.600973     0.8892E+02  -0.25324   0.63311
     401.00   3.603144     0.9765E+02  -0.21255   0.53138
     403.00   3.605305     0.9624E+02  -0.21889   0.54722
     405.00   3.607455     0.9247E+02  -0.23624   0.59061
     407.00   3.609594     0.8753E+02  -0.26006   0.65015
     409.00   3.611723     0.1073E+03  -0.17157   0.42893
     411.00   3.613842     0.1008E+03  -0.19864   0.49660
     413.00   3.615950     0.9890E+02  -0.20702   0.51756
     415.00   3.618048     0.9657E+02  -0.21740   0.54351
     417.00   3.620136     0.9853E+02  -0.20866   0.52164
     419.00   3.622214     0.9558E+02  -0.22188   0.55469
     421.00   3.624282     0.9647E+02  -0.21786   0.54466
     423.00   3.626340     0.9127E+02  -0.24189   0.60473
     425.00   3.628389     0.9646E+02  -0.21788   0.54469
     427.00   3.630428     0.9077E+02  -0.24431   0.61078
     429.00   3.632457     0.8445E+02  -0.27565   0.68913
     431.00   3.634477     0.7223E+02  -0.34353   0.85882
     433.00   3.636488     0.1080E+03  -0.16884   0.42210
     435.00   3.638489     0.1069E+03  -0.17320   0.43300
     437.00   3.640481     0.1157E+03  -0.13897   0.34743
     439.00   3.642465     0.1032E+03  -0.18865   0.47162
     441.00   3.644439     0.1104E+03  -0.15924   0.39809
     443.00   3.646404     0.1204E+03  -0.12146   0.30366
     445.00   3.648360     0.1210E+03  -0.11942   0.29855
     447.00   3.650307     0.1293E+03  -0.09048   0.22619
     449.00   3.652246     0.1331E+03  -0.07800   0.19500
     451.00   3.654176     0.1501E+03  -0.02591   0.06477
     453.00   3.656098     0.1325E+03  -0.08015   0.20038
     455.00   3.658011     0.1391E+03  -0.05898   0.14745
     457.00   3.659916     0.1500E+03  -0.02612   0.06530
     459.00   3.661813     0.1413E+03  -0.05220   0.13049
     461.00   3.663701     0.1461E+03  -0.03753   0.09384
     463.00   3.665581     0.1431E+03  -0.04654   0.11635
     465.00   3.667453     0.1448E+03  -0.04153   0.10381
     467.00   3.669317     0.1509E+03  -0.02358   0.05895
     469.00   3.671173     0.1483E+03  -0.03100   0.07749
     471.00   3.673021     0.1452E+03  -0.04035   0.10088
     473.00   3.674861     0.1496E+03  -0.02742   0.06856
     475.00   3.676694     0.1530E+03  -0.01761   0.04402
     477.00   3.678518     0.1497E+03  -0.02710   0.06776
     479.00   3.680336     0.1508E+03  -0.02380   0.05951
     481.00   3.682145     0.1516E+03  -0.02160   0.05399
     483.00   3.683947     0.1557E+03  -0.01008   0.02521
     485.00   3.685742     0.1495E+03  -0.02758   0.06896
     487.00   3.687529     0.1378E+03  -0.06289   0.15723
     489.00   3.689309     0.1519E+03  -0.02056   0.05141
     491.00   3.691082     0.1530E+03  -0.01756   0.04391
     493.00   3.692847     0.1505E+03  -0.02473   0.06182
     495.00   3.694605     0.1560E+03  -0.00918   0.02295
     497.00   3.696356     0.1512E+03  -0.02257   0.05641
     499.00   3.698101     0.1414E+03  -0.05168   0.12921
     501.00   3.699838     0.1340E+03  -0.07503   0.18759
     503.00   3.701568     0.1428E+03  -0.04743   0.11859
     505.00   3.703291     0.1426E+03  -0.04815   0.12038
     507.00   3.705008     0.1486E+03  -0.03012   0.07531
     509.00   3.706718     0.1415E+03  -0.05154   0.12885
     511.00   3.708421     0.1446E+03  -0.04197   0.10491
     513.00   3.710117     0.1409E+03  -0.05347   0.13369
     515.00   3.711807     0.1359E+03  -0.06889   0.17223
     517.00   3.713490     0.1230E+03  -0.11225   0.28063
     519.00   3.715167     0.1280E+03  -0.09494   0.23734
     521.00   3.716838     0.1384E+03  -0.06113   0.15283
     523.00   3.718502     0.1507E+03  -0.02413   0.06034
     525.00   3.720159     0.1571E+03  -0.00612   0.01530
     527.00   3.721811     0.1390E+03  -0.05925   0.14814
     529.00   3.723456     0.1600E+03   0.00190  -0.00476
     531.00   3.725095     0.1692E+03   0.02606  -0.06515
     533.00   3.726727     0.1504E+03  -0.02494   0.06235
     535.00   3.728354     0.1646E+03   0.01424  -0.03559
     537.00   3.729974     0.1630E+03   0.00983  -0.02457
     539.00   3.731589     0.1602E+03   0.00234  -0.00585
     541.00   3.733197     0.1577E+03  -0.00450   0.01124
     543.00   3.734800     0.1601E+03   0.00206  -0.00515
     545.00   3.736397     0.1630E+03   0.00990  -0.02475
     547.00   3.737987     0.1597E+03   0.00096  -0.00239
     549.00   3.739572     0.1615E+03   0.00601  -0.01503
     551.00   3.741152     0.1593E+03   0.00000   0.00000
     553.00   3.742725     0.1649E+03   0.01508  -0.03770
     555.00   3.744293     0.1678E+03   0.02243  -0.05609
     557.00   3.745855     0.1638E+03   0.01215  -0.03038
     559.00   3.747412     0.1600E+03   0.00180  -0.00451
     561.00   3.748963     0.1647E+03   0.01456  -0.03641
     563.00   3.750508     0.1646E+03   0.01421  -0.03553
     565.00   3.752048     0.1673E+03   0.02115  -0.05288
     567.00   3.753583     0.1635E+03   0.01135  -0.02838
     569.00   3.755112     0.1683E+03   0.02384  -0.05961
     571.00   3.756636     0.1633E+03   0.01079  -0.02697
     573.00   3.758155     0.1757E+03   0.04242  -0.10605
     575.00   3.759668     0.1709E+03   0.03043  -0.07606
     577.00   3.761176     0.1727E+03   0.03499  -0.08747
     579.00   3.762679     0.1671E+03   0.02072  -0.05179
     581.00   3.764176     0.1729E+03   0.03559  -0.08897
     583.00   3.765669     0.1763E+03   0.04395  -0.10988
     585.00   3.767156     0.1702E+03   0.02865  -0.07164
     587.00   3.768638     0.1694E+03   0.02665  -0.06663
     589.00   3.770115     0.1512E+03  -0.02272   0.05679
     591.00   3.771587     0.1663E+03   0.01873  -0.04682
     593.00   3.773055     0.1680E+03   0.02309  -0.05773
     595.00   3.774517     0.1687E+03   0.02481  -0.06201
     597.00   3.775974     0.1717E+03   0.03245  -0.08111
     599.00   3.777427     0.1699E+03   0.02789  -0.06972
     601.00   3.778874     0.1681E+03   0.02325  -0.05813
     603.00   3.780317     0.1720E+03   0.03335  -0.08337
     605.00   3.781755     0.1754E+03   0.04172  -0.10429
     607.00   3.783189     0.1746E+03   0.03990  -0.09974
     609.00   3.784617     0.1700E+03   0.02828  -0.07071
     611.00   3.786041     0.1709E+03   0.03042  -0.07605
     613.00   3.787461     0.1628E+03   0.00947  -0.02366
     615.00   3.788875     0.1666E+03   0.01946  -0.04865
     617.00   3.790285     0.1566E+03  -0.00740   0.01851
     619.00   3.791691     0.1646E+03   0.01419  -0.03546
     621.00   3.793092     0.1632E+03   0.01037  -0.02593
     623.00   3.794488     0.1587E+03  -0.00173   0.00433
     625.00   3.795880     0.1546E+03  -0.01289   0.03223
     627.00   3.797267     0.1619E+03   0.00692  -0.01731
     629.00   3.798651     0.1652E+03   0.01568  -0.03919
     631.00   3.800029     0.1625E+03   0.00859  -0.02147
     633.00   3.801404     0.1654E+03   0.01638  -0.04094
     635.00   3.802774     0.1671E+03   0.02072  -0.05180
     637.00   3.804139     0.1670E+03   0.02057  -0.05142
     639.00   3.805501     0.1693E+03   0.02647  -0.06617
     641.00   3.806858     0.1663E+03   0.01876  -0.04689
     643.00   3.808211     0.1680E+03   0.02300  -0.05751
     645.00   3.809560     0.1676E+03   0.02198  -0.05494
     647.00   3.810904     0.1673E+03   0.02127  -0.05318
     649.00   3.812245     0.1646E+03   0.01414  -0.03536
     651.00   3.813581     0.1701E+03   0.02837  -0.07092
     653.00   3.814913     0.1711E+03   0.03092  -0.07730
     655.00   3.816241     0.1667E+03   0.01968  -0.04921
     657.00   3.817565     0.1574E+03  -0.00532   0.01330
     659.00   3.818885     0.1666E+03   0.01936  -0.04839
     661.00   3.820201     0.1681E+03   0.02336  -0.05841
     663.00   3.821513     0.1661E+03   0.01818  -0.04546
     665.00   3.822822     0.1644E+03   0.01359  -0.03398
     667.00   3.824126     0.1605E+03   0.00312  -0.00779
     669.00   3.825426     0.1619E+03   0.00701  -0.01751
     671.00   3.826723     0.1557E+03  -0.00993   0.02483
     673.00   3.828015     0.1586E+03  -0.00189   0.00473
     675.00   3.829304     0.1561E+03  -0.00893   0.02233
     677.00   3.830589     0.1570E+03  -0.00637   0.01592
     679.00   3.831870     0.1559E+03  -0.00935   0.02337
     681.00   3.833147     0.1567E+03  -0.00721   0.01802
     683.00   3.834421     0.1589E+03  -0.00105   0.00262
     685.00   3.835690     0.1559E+03  -0.00942   0.02356
     687.00   3.836957     0.1584E+03  -0.00250   0.00624
     689.00   3.838219     0.1614E+03   0.00576  -0.01439
     691.00   3.839478     0.1625E+03   0.00862  -0.02155
     693.00   3.840733     0.1622E+03   0.00771  -0.01929
     695.00   3.841985     0.1625E+03   0.00851  -0.02126
     697.00   3.843233     0.1653E+03   0.01610  -0.04025
     699.00   3.844477     0.1655E+03   0.01662  -0.04156
     701.00   3.845718     0.1644E+03   0.01358  -0.03396
     703.00   3.846955     0.1656E+03   0.01687  -0.04219
     705.00   3.848189     0.1629E+03   0.00957  -0.02392
     707.00   3.849419     0.1557E+03  -0.00984   0.02461
     709.00   3.850646     0.1494E+03  -0.02787   0.06966
     711.00   3.851870     0.1451E+03  -0.04050   0.10125
     713.00   3.853090     0.1415E+03  -0.05143   0.12858
     715.00   3.854306     0.1412E+03  -0.05249   0.13123
     717.00   3.855519     0.1433E+03  -0.04595   0.11487
     719.00   3.856729     0.1411E+03  -0.05280   0.13201
     721.00   3.857935     0.1449E+03  -0.04107   0.10268
     723.00   3.859138     0.1491E+03  -0.02870   0.07176
     725.00   3.860338     0.1510E+03  -0.02335   0.05838
     727.00   3.861534     0.1529E+03  -0.01776   0.04440
     729.00   3.862728     0.1531E+03  -0.01725   0.04313
     731.00   3.863917     0.1589E+03  -0.00107   0.00268
     733.00   3.865104     0.1591E+03  -0.00063   0.00158
     735.00   3.866287     0.1621E+03   0.00767  -0.01918
     737.00   3.867467     0.1663E+03   0.01864  -0.04660
     739.00   3.868644     0.1635E+03   0.01133  -0.02832
     741.00   3.869818     0.1636E+03   0.01145  -0.02863
     743.00   3.870989     0.1672E+03   0.02094  -0.05235
     745.00   3.872156     0.1671E+03   0.02075  -0.05189
     747.00   3.873321     0.1696E+03   0.02717  -0.06792
     749.00   3.874482     0.1688E+03   0.02507  -0.06268
     751.00   3.875640     0.1697E+03   0.02741  -0.06852
     753.00   3.876795     0.1713E+03   0.03149  -0.07872
     755.00   3.877947     0.1721E+03   0.03348  -0.08370
     757.00   3.879096     0.1712E+03   0.03124  -0.07810
     759.00   3.880242     0.1672E+03   0.02097  -0.05244
     761.00   3.881385     0.1635E+03   0.01130  -0.02826
     763.00   3.882524     0.1596E+03   0.00074  -0.00185
     765.00   3.883662     0.1551E+03  -0.01151   0.02878
     767.00   3.884795     0.1478E+03  -0.03248   0.08121
     769.00   3.885926     0.1509E+03  -0.02368   0.05920
     771.00   3.887054     0.1481E+03  -0.03169   0.07922
     773.00   3.888180     0.1487E+03  -0.02984   0.07460
     775.00   3.889302     0.1475E+03  -0.03338   0.08344
     777.00   3.890421     0.1498E+03  -0.02669   0.06673
     779.00   3.891537     0.1500E+03  -0.02616   0.06541
     781.00   3.892651     0.1507E+03  -0.02421   0.06052
     783.00   3.893762     0.1505E+03  -0.02479   0.06197
     785.00   3.894870     0.1492E+03  -0.02861   0.07152
     787.00   3.895975     0.1517E+03  -0.02129   0.05323
     789.00   3.897077     0.1512E+03  -0.02262   0.05655
     791.00   3.898176     0.1480E+03  -0.03201   0.08003
     793.00   3.899273     0.1488E+03  -0.02955   0.07387
     795.00   3.900367     0.1488E+03  -0.02963   0.07408
     797.00   3.901458     0.1525E+03  -0.01898   0.04744
     799.00   3.902547     0.1526E+03  -0.01866   0.04666
     801.00   3.903632     0.1561E+03  -0.00886   0.02214
     803.00   3.904716     0.1568E+03  -0.00692   0.01729
     805.00   3.905796     0.1562E+03  -0.00857   0.02142
     807.00   3.906873     0.1584E+03  -0.00253   0.00634
     809.00   3.907948     0.1573E+03  -0.00547   0.01367
     811.00   3.909021     0.1583E+03  -0.00282   0.00706
     813.00   3.910090     0.1606E+03   0.00342  -0.00856
     815.00   3.911158     0.1612E+03   0.00523  -0.01307
     817.00   3.912222     0.1614E+03   0.00556  -0.01390
     819.00   3.913284     0.1584E+03  -0.00244   0.00611
     821.00   3.914343     0.1567E+03  -0.00730   0.01826
     823.00   3.915400     0.1570E+03  -0.00639   0.01598
     825.00   3.916454     0.1570E+03  -0.00647   0.01617
     827.00   3.917506     0.1576E+03  -0.00458   0.01145
     829.00   3.918555     0.1564E+03  -0.00811   0.02028
     831.00   3.919601     0.1533E+03  -0.01680   0.04201
     833.00   3.920645     0.1520E+03  -0.02044   0.05111
     835.00   3.921686     0.1522E+03  -0.01989   0.04973
     837.00   3.922725     0.1526E+03  -0.01880   0.04701
     839.00   3.923762     0.1489E+03  -0.02928   0.07319
     841.00   3.924796     0.1524E+03  -0.01936   0.04839
     843.00   3.925828     0.1487E+03  -0.02985   0.07462
     845.00   3.926857     0.1457E+03  -0.03887   0.09718
     847.00   3.927883     0.1446E+03  -0.04206   0.10516
     849.00   3.928908     0.1463E+03  -0.03711   0.09277
     851.00   3.929929     0.1407E+03  -0.05383   0.13458
     853.00   3.930949     0.1457E+03  -0.03877   0.09694
     855.00   3.931966     0.1384E+03  -0.06118   0.15295
     857.00   3.932981     0.1484E+03  -0.03077   0.07692
     859.00   3.933993     0.1471E+03  -0.03451   0.08627
     861.00   3.935003     0.1481E+03  -0.03161   0.07902
     863.00   3.936011     0.1499E+03  -0.02640   0.06599
     865.00   3.937016     0.1504E+03  -0.02491   0.06228
     867.00   3.938019     0.1407E+03  -0.05391   0.13477
     869.00   3.939020     0.1476E+03  -0.03315   0.08287
     871.00   3.940018     0.1507E+03  -0.02404   0.06010
     873.00   3.941014     0.1512E+03  -0.02264   0.05659
     875.00   3.942008     0.1499E+03  -0.02639   0.06598
     877.00   3.943000     0.1513E+03  -0.02240   0.05599
     879.00   3.943989     0.1521E+03  -0.02020   0.05050
     881.00   3.944976     0.1498E+03  -0.02677   0.06691
     883.00   3.945961     0.1508E+03  -0.02391   0.05978
     885.00   3.946943     0.1500E+03  -0.02607   0.06516
     887.00   3.947924     0.1464E+03  -0.03677   0.09192
     889.00   3.948902     0.1477E+03  -0.03273   0.08182
     891.00   3.949878     0.1485E+03  -0.03053   0.07633
     893.00   3.950851     0.1468E+03  -0.03546   0.08866
     895.00   3.951823     0.1467E+03  -0.03570   0.08925
     897.00   3.952792     0.1471E+03  -0.03468   0.08670
     899.00   3.953760     0.1472E+03  -0.03421   0.08553
     901.00   3.954725     0.1437E+03  -0.04472   0.11181
     903.00   3.955688     0.1475E+03  -0.03346   0.08364
     905.00   3.956649     0.1498E+03  -0.02664   0.06661
     907.00   3.957607     0.1492E+03  -0.02846   0.07114
     909.00   3.958564     0.1466E+03  -0.03621   0.09054
     911.00   3.959518     0.1477E+03  -0.03278   0.08196
     913.00   3.960471     0.1489E+03  -0.02941   0.07352
     915.00   3.961421     0.1483E+03  -0.03101   0.07751
     917.00   3.962369     0.1479E+03  -0.03229   0.08073
     919.00   3.963315     0.1484E+03  -0.03088   0.07721
     921.00   3.964260     0.1451E+03  -0.04050   0.10125
     923.00   3.965202     0.1441E+03  -0.04366   0.10914
     925.00   3.966142     0.1433E+03  -0.04592   0.11481
     927.00   3.967080     0.1441E+03  -0.04355   0.10888
     929.00   3.968016     0.1426E+03  -0.04802   0.12006
     931.00   3.968950     0.1431E+03  -0.04667   0.11668
     933.00   3.969882     0.1430E+03  -0.04691   0.11727
     935.00   3.970812     0.1426E+03  -0.04801   0.12001
     937.00   3.971740     0.1408E+03  -0.05370   0.13426
     939.00   3.972666     0.1425E+03  -0.04845   0.12112
     941.00   3.973590     0.1403E+03  -0.05507   0.13767
     943.00   3.974512     0.1422E+03  -0.04947   0.12367
     945.00   3.975432     0.1407E+03  -0.05406   0.13514
     947.00   3.976350     0.1424E+03  -0.04879   0.12197
     949.00   3.977266     0.1424E+03  -0.04876   0.12191
     951.00   3.978180     0.1410E+03  -0.05310   0.13274
     953.00   3.979093     0.1414E+03  -0.05181   0.12952
     955.00   3.980003     0.1393E+03  -0.05844   0.14610
     957.00   3.980912     0.1402E+03  -0.05539   0.13847
     959.00   3.981819     0.1414E+03  -0.05168   0.12920
     961.00   3.982723     0.1401E+03  -0.05588   0.13971
     963.00   3.983626     0.1404E+03  -0.05482   0.13704
     965.00   3.984527     0.1386E+03  -0.06038   0.15095
     967.00   3.985426     0.1387E+03  -0.06006   0.15016
     969.00   3.986324     0.1398E+03  -0.05684   0.14211
     971.00   3.987219     0.1387E+03  -0.06029   0.15073
     973.00   3.988113     0.1379E+03  -0.06278   0.15695
     975.00   3.989005     0.1375E+03  -0.06397   0.15993
     977.00   3.989895     0.1376E+03  -0.06347   0.15868
     979.00   3.990783     0.1363E+03  -0.06775   0.16938
     981.00   3.991669     0.1383E+03  -0.06139   0.15348
     983.00   3.992553     0.1375E+03  -0.06382   0.15954
     985.00   3.993436     0.1379E+03  -0.06275   0.15688
     987.00   3.994317     0.1370E+03  -0.06558   0.16395
     989.00   3.995196     0.1366E+03  -0.06680   0.16699
     991.00   3.996074     0.1363E+03  -0.06780   0.16950
     993.00   3.996949     0.1364E+03  -0.06731   0.16828
     995.00   3.997823     0.1364E+03  -0.06737   0.16843
     997.00   3.998695     0.1363E+03  -0.06770   0.16925
     999.00   3.999566     0.1359E+03  -0.06897   0.17242
    1003.00   4.001301     0.1349E+03  -0.07214   0.18035
    1008.00   4.003461     0.1337E+03  -0.07615   0.19038
    1013.00   4.005610     0.1340E+03  -0.07520   0.18800
    1018.00   4.007748     0.1326E+03  -0.07985   0.19963
    1023.00   4.009875     0.1323E+03  -0.08054   0.20135
    1028.00   4.011993     0.1321E+03  -0.08122   0.20306
    1033.00   4.014100     0.1304E+03  -0.08696   0.21740
    1038.00   4.016197     0.1296E+03  -0.08949   0.22372
    1043.00   4.018284     0.1299E+03  -0.08878   0.22196
    1048.00   4.020361     0.1288E+03  -0.09233   0.23082
    1053.00   4.022429     0.1285E+03  -0.09341   0.23353
    1058.00   4.024486     0.1270E+03  -0.09842   0.24605
    1063.00   4.026533     0.1264E+03  -0.10060   0.25151
    1068.00   4.028571     0.1248E+03  -0.10607   0.26516
    1073.00   4.030600     0.1248E+03  -0.10593   0.26482
    1078.00   4.032619     0.1238E+03  -0.10963   0.27407
    1083.00   4.034628     0.1222E+03  -0.11525   0.28813
    1088.00   4.036629     0.1216E+03  -0.11735   0.29337
    1093.00   4.038620     0.1212E+03  -0.11890   0.29725
    1098.00   4.040603     0.1196E+03  -0.12441   0.31102
    1103.00   4.042576     0.1193E+03  -0.12564   0.31411
    1108.00   4.044539     0.1184E+03  -0.12887   0.32217
    1113.00   4.046495     0.1179E+03  -0.13088   0.32720
    1118.00   4.048442     0.1170E+03  -0.13401   0.33503
    1123.00   4.050380     0.1169E+03  -0.13441   0.33602
    1128.00   4.052309     0.1158E+03  -0.13853   0.34632
    1133.00   4.054230     0.1156E+03  -0.13933   0.34834
    1138.00   4.056142     0.1148E+03  -0.14222   0.35555
    1143.00   4.058046     0.1139E+03  -0.14583   0.36457
    1148.00   4.059942     0.1146E+03  -0.14304   0.35760
    1153.00   4.061830     0.1143E+03  -0.14406   0.36015
    1158.00   4.063708     0.1132E+03  -0.14820   0.37051
    1163.00   4.065579     0.1119E+03  -0.15322   0.38305
    1168.00   4.067443     0.1119E+03  -0.15353   0.38384
    1173.00   4.069298     0.1122E+03  -0.15216   0.38040
    1178.00   4.071145     0.1106E+03  -0.15836   0.39590
    1183.00   4.072985     0.1099E+03  -0.16117   0.40294
    1188.00   4.074817     0.1087E+03  -0.16585   0.41462
    1193.00   4.076640     0.1099E+03  -0.16115   0.40287
    1198.00   4.078457     0.1071E+03  -0.17237   0.43091
    1203.00   4.080266     0.1084E+03  -0.16723   0.41809
    1208.00   4.082067     0.1075E+03  -0.17088   0.42720
    1213.00   4.083861     0.1075E+03  -0.17095   0.42737
    1218.00   4.085648     0.1075E+03  -0.17100   0.42751
    1223.00   4.087426     0.1068E+03  -0.17360   0.43399
    1228.00   4.089198     0.1061E+03  -0.17644   0.44111
    1233.00   4.090963     0.1056E+03  -0.17852   0.44630
    1238.00   4.092721     0.1052E+03  -0.18018   0.45044
    1243.00   4.094471     0.1043E+03  -0.18382   0.45955
    1248.00   4.096214     0.1042E+03  -0.18444   0.46110
    1253.00   4.097951     0.1034E+03  -0.18790   0.46975
    1258.00   4.099681     0.1030E+03  -0.18927   0.47318
    1263.00   4.101403     0.1025E+03  -0.19132   0.47830
    1268.00   4.103119     0.1018E+03  -0.19443   0.48608
    1273.00   4.104828     0.1017E+03  -0.19488   0.48719
    1278.00   4.106531     0.1016E+03  -0.19543   0.48858
    1283.00   4.108227     0.9899E+02  -0.20665   0.51663
    1288.00   4.109916     0.1000E+03  -0.20206   0.50515
    1293.00   4.111598     0.9921E+02  -0.20570   0.51425
    1298.00   4.113275     0.9968E+02  -0.20364   0.50911
    1303.00   4.114944     0.9874E+02  -0.20772   0.51931
    1308.00   4.116608     0.9877E+02  -0.20763   0.51907
    1313.00   4.118265     0.9731E+02  -0.21407   0.53519
    1318.00   4.119915     0.9696E+02  -0.21563   0.53907
    1323.00   4.121560     0.9697E+02  -0.21560   0.53901
    1328.00   4.123198     0.9571E+02  -0.22128   0.55321
    1333.00   4.124830     0.9584E+02  -0.22071   0.55177
    1338.00   4.126456     0.9514E+02  -0.22386   0.55964
    1343.00   4.128076     0.9521E+02  -0.22354   0.55886
    1348.00   4.129690     0.9461E+02  -0.22632   0.56581
    1353.00   4.131298     0.9417E+02  -0.22834   0.57086
    1358.00   4.132900     0.9302E+02  -0.23364   0.58410
    1363.00   4.134496     0.9271E+02  -0.23509   0.58773
    1368.00   4.136086     0.9303E+02  -0.23360   0.58401
    1373.00   4.137671     0.9323E+02  -0.23266   0.58166
    1378.00   4.139249     0.9299E+02  -0.23381   0.58453
    1383.00   4.140822     0.9291E+02  -0.23420   0.58549
    1388.00   4.142389     0.9208E+02  -0.23806   0.59515
    1393.00   4.143951     0.8806E+02  -0.25745   0.64363
    1398.00   4.145507     0.8829E+02  -0.25631   0.64078
    1403.00   4.147058     0.8751E+02  -0.26019   0.65048
    1408.00   4.148602     0.8795E+02  -0.25799   0.64497
    1413.00   4.150142     0.8723E+02  -0.26156   0.65390
    1418.00   4.151676     0.8765E+02  -0.25951   0.64877
    1423.00   4.153205     0.8687E+02  -0.26339   0.65848
    1428.00   4.154728     0.8605E+02  -0.26750   0.66874
    1433.00   4.156246     0.8727E+02  -0.26135   0.65338
    1438.00   4.157759     0.8756E+02  -0.25992   0.64981
    1443.00   4.159266     0.8611E+02  -0.26719   0.66798
    1448.00   4.160769     0.8730E+02  -0.26123   0.65306
    1453.00   4.162266     0.8656E+02  -0.26494   0.66235
    1457.00   4.163460     0.8688E+02  -0.26334   0.65834
    1462.00   4.164948     0.8461E+02  -0.27483   0.68708
    1468.00   4.166726     0.8482E+02  -0.27375   0.68438
    1473.00   4.168202     0.8417E+02  -0.27708   0.69270
    1478.00   4.169674     0.8466E+02  -0.27458   0.68646
    1483.00   4.171141     0.8489E+02  -0.27340   0.68349
    1488.00   4.172603     0.8430E+02  -0.27642   0.69105
    1493.00   4.174060     0.8576E+02  -0.26898   0.67244
    1498.00   4.175512     0.8526E+02  -0.27147   0.67867
    1503.00   4.176959     0.8442E+02  -0.27581   0.68953
    1508.00   4.178401     0.8451E+02  -0.27532   0.68830
    1513.00   4.179839     0.8572E+02  -0.26916   0.67289
    1518.00   4.181272     0.8587E+02  -0.26838   0.67096
    1523.00   4.182700     0.8576E+02  -0.26894   0.67236
    1528.00   4.184123     0.8617E+02  -0.26690   0.66724
    1533.00   4.185542     0.8589E+02  -0.26831   0.67077
    1538.00   4.186956     0.8487E+02  -0.27350   0.68375
    1543.00   4.188366     0.8537E+02  -0.27094   0.67735
    1548.00   4.189771     0.8551E+02  -0.27023   0.67558
    1553.00   4.191172     0.8501E+02  -0.27277   0.68191
    1558.00   4.192567     0.8308E+02  -0.28272   0.70680
    1563.00   4.193959     0.8406E+02  -0.27767   0.69417
    1568.00   4.195346     0.8369E+02  -0.27954   0.69886
    1573.00   4.196729     0.8470E+02  -0.27437   0.68592
    1578.00   4.198107     0.7935E+02  -0.30269   0.75672
    1583.00   4.199481     0.8148E+02  -0.29117   0.72793
    1588.00   4.200850     0.8123E+02  -0.29253   0.73133
    1593.00   4.202216     0.8311E+02  -0.28261   0.70652
    1598.00   4.203577     0.8399E+02  -0.27801   0.69503
    1605.00   4.205475     0.8145E+02  -0.29137   0.72843
    1615.00   4.208173     0.8256E+02  -0.28545   0.71362
    1625.00   4.210854     0.8031E+02  -0.29748   0.74370
    1635.00   4.213518     0.8186E+02  -0.28915   0.72287
    1645.00   4.216166     0.7893E+02  -0.30500   0.76250
    1655.00   4.218798     0.7984E+02  -0.30001   0.75002
    1665.00   4.221415     0.7750E+02  -0.31295   0.78237
    1675.00   4.224015     0.7727E+02  -0.31423   0.78556
    1685.00   4.226600     0.7632E+02  -0.31958   0.79896
    1695.00   4.229170     0.7535E+02  -0.32516   0.81289
    1705.00   4.231725     0.7377E+02  -0.33435   0.83589
    1715.00   4.234264     0.7245E+02  -0.34222   0.85554
    1725.00   4.236789     0.7097E+02  -0.35115   0.87786
    1735.00   4.239300     0.6894E+02  -0.36380   0.90949
    1745.00   4.241796     0.6814E+02  -0.36881   0.92203
    1755.00   4.244277     0.6710E+02  -0.37551   0.93876
    1765.00   4.246745     0.6574E+02  -0.38438   0.96094
    1775.00   4.249198     0.6432E+02  -0.39388   0.98471
    1785.00   4.251638     0.6343E+02  -0.39993   0.99983
    1795.00   4.254065     0.6211E+02  -0.40906   1.02264
    1805.00   4.256477     0.6080E+02  -0.41831   1.04579
    1815.00   4.258877     0.5963E+02  -0.42678   1.06694
    1825.00   4.261263     0.5877E+02  -0.43308   1.08270
    1835.00   4.263636     0.5786E+02  -0.43989   1.09974
    1845.00   4.265996     0.5670E+02  -0.44865   1.12162
    1855.00   4.268344     0.5611E+02  -0.45323   1.13307
    1865.00   4.270679     0.5485E+02  -0.46308   1.15770
    1875.00   4.273001     0.5358E+02  -0.47327   1.18318
    1885.00   4.275311     0.5315E+02  -0.47676   1.19191
    1895.00   4.277609     0.5141E+02  -0.49120   1.22799
    1905.00   4.279895     0.5132E+02  -0.49197   1.22992
    1915.00   4.282169     0.5023E+02  -0.50129   1.25323
    1925.00   4.284431     0.4935E+02  -0.50897   1.27244
    1935.00   4.286681     0.4803E+02  -0.52072   1.30179
    1945.00   4.288919     0.4683E+02  -0.53175   1.32937
    1955.00   4.291147     0.4648E+02  -0.53494   1.33735
    1965.00   4.293363     0.4563E+02  -0.54303   1.35758
    1975.00   4.295567     0.4451E+02  -0.55376   1.38439
    1985.00   4.297760     0.4388E+02  -0.55996   1.39989
    1995.00   4.299943     0.4326E+02  -0.56617   1.41543
    2005.00   4.302114     0.4286E+02  -0.57018   1.42544
    2015.00   4.304275     0.4223E+02  -0.57667   1.44167
    2025.00   4.306425     0.4125E+02  -0.58679   1.46699
    2035.00   4.308564     0.4062E+02  -0.59352   1.48381
    2045.00   4.310693     0.4031E+02  -0.59687   1.49216
    2055.00   4.312812     0.3962E+02  -0.60435   1.51087
    2065.00   4.314920     0.3891E+02  -0.61217   1.53043
    2075.00   4.317018     0.3840E+02  -0.61790   1.54475
    2085.00   4.319106     0.3780E+02  -0.62471   1.56177
    2095.00   4.321184     0.3710E+02  -0.63290   1.58225
    2105.00   4.323252     0.3677E+02  -0.63674   1.59185
    2115.00   4.325311     0.3613E+02  -0.64434   1.61085
    2125.00   4.327359     0.3558E+02  -0.65109   1.62772
    2135.00   4.329398     0.3517E+02  -0.65607   1.64018
    2145.00   4.331428     0.3461E+02  -0.66299   1.65749
    2155.00   4.333447     0.3407E+02  -0.66984   1.67459
    2165.00   4.335458     0.3336E+02  -0.67896   1.69741
    2175.00   4.337460     0.3293E+02  -0.68463   1.71158
    2185.00   4.339452     0.3250E+02  -0.69042   1.72605
    2195.00   4.341434     0.3207E+02  -0.69618   1.74044
    2205.00   4.343409     0.3133E+02  -0.70633   1.76582
    2215.00   4.345374     0.3114E+02  -0.70886   1.77216
    2225.00   4.347330     0.3045E+02  -0.71869   1.79672
    2235.00   4.349277     0.3005E+02  -0.72445   1.81113
    2245.00   4.351216     0.2961E+02  -0.73087   1.82718
    2255.00   4.353147     0.2921E+02  -0.73672   1.84181
    2265.00   4.355068     0.2863E+02  -0.74539   1.86348
    2275.00   4.356981     0.2836E+02  -0.74946   1.87364
    2285.00   4.358886     0.2780E+02  -0.75814   1.89535
    2295.00   4.360783     0.2296E+02  -0.84125   2.10313
    2305.00   4.362671     0.2504E+02  -0.80362   2.00906
    2315.00   4.364551     0.2492E+02  -0.80577   2.01443
    2325.00   4.366423     0.2131E+02  -0.87356   2.18390
    2335.00   4.368287     0.2305E+02  -0.83962   2.09904
    2345.00   4.370143     0.2164E+02  -0.86702   2.16756
    2355.00   4.371991     0.1984E+02  -0.90477   2.26192
    2365.00   4.373831     0.2139E+02  -0.87199   2.17998
    2375.00   4.375664     0.2027E+02  -0.89529   2.23821
    2385.00   4.377488     0.1875E+02  -0.92929   2.32322
    2395.00   4.379306     0.1996E+02  -0.90201   2.25503
    2405.00   4.381115     0.1934E+02  -0.91584   2.28959
    2415.00   4.382917     0.1783E+02  -0.95110   2.37774
    2425.00   4.384712     0.1881E+02  -0.92791   2.31977
    2435.00   4.386499     0.1815E+02  -0.94335   2.35837
    2445.00   4.388279     0.1800E+02  -0.94691   2.36728
    2455.00   4.390052     0.1749E+02  -0.95940   2.39850
    2465.00   4.391817     0.1757E+02  -0.95743   2.39358
    2475.00   4.393575     0.1711E+02  -0.96894   2.42234
    2485.00   4.395327     0.1535E+02  -1.01616   2.54039
    2495.00   4.397071     0.1498E+02  -1.02676   2.56689
    2505.00   4.398808     0.1519E+02  -1.02063   2.55157
    2515.00   4.400538     0.1449E+02  -1.04116   2.60289
    2525.00   4.402262     0.1484E+02  -1.03083   2.57708
    2535.00   4.403978     0.1488E+02  -1.02972   2.57430
    2545.00   4.405688     0.1471E+02  -1.03459   2.58648
    2555.00   4.407391     0.1468E+02  -1.03561   2.58902
    2565.00   4.409087     0.1477E+02  -1.03283   2.58208
    2575.00   4.410777     0.1486E+02  -1.03020   2.57549
    2585.00   4.412460     0.1447E+02  -1.04168   2.60419
    2595.00   4.414137     0.1453E+02  -1.03995   2.59987
    2605.00   4.415808     0.1452E+02  -1.04026   2.60066
    2615.00   4.417472     0.1429E+02  -1.04723   2.61806
    2625.00   4.419129     0.1407E+02  -1.05402   2.63505
    2635.00   4.420781     0.1407E+02  -1.05382   2.63454
    2645.00   4.422426     0.1395E+02  -1.05760   2.64399
    2655.00   4.424065     0.1377E+02  -1.06330   2.65826
    2665.00   4.425697     0.1355E+02  -1.07022   2.67554
    2675.00   4.427324     0.1365E+02  -1.06704   2.66761
    2685.00   4.428945     0.1350E+02  -1.07179   2.67948
    2695.00   4.430559     0.1327E+02  -1.07947   2.69867
    2705.00   4.432167     0.1324E+02  -1.08048   2.70121
    2715.00   4.433770     0.1311E+02  -1.08471   2.71179
    2725.00   4.435367     0.1302E+02  -1.08765   2.71913
    2735.00   4.436957     0.1281E+02  -1.09485   2.73712
    2745.00   4.438542     0.1276E+02  -1.09639   2.74098
    2755.00   4.440122     0.1266E+02  -1.09972   2.74930
    2765.00   4.441695     0.1250E+02  -1.10525   2.76312
    2775.00   4.443263     0.1234E+02  -1.11084   2.77710
    2785.00   4.444825     0.1228E+02  -1.11315   2.78287
    2795.00   4.446382     0.1221E+02  -1.11570   2.78925
    2805.00   4.447933     0.1207E+02  -1.12052   2.80131
    2815.00   4.449478     0.1191E+02  -1.12621   2.81552
    2825.00   4.451018     0.1182E+02  -1.12975   2.82438
    2835.00   4.452553     0.1173E+02  -1.13291   2.83228
    2845.00   4.454082     0.1159E+02  -1.13812   2.84530
    2855.00   4.455606     0.1147E+02  -1.14271   2.85677
    2865.00   4.457125     0.1136E+02  -1.14704   2.86760
    2875.00   4.458638     0.1123E+02  -1.15175   2.87938
    2885.00   4.460146     0.1113E+02  -1.15564   2.88911
    2895.00   4.461648     0.1102E+02  -1.16000   2.90000
    2905.00   4.463146     0.1090E+02  -1.16475   2.91186
    2915.00   4.464639     0.1080E+02  -1.16880   2.92200
    2925.00   4.466126     0.1064E+02  -1.17541   2.93852
    2935.00   4.467608     0.1058E+02  -1.17763   2.94408
    2945.00   4.469085     0.1045E+02  -1.18304   2.95760
    2955.00   4.470557     0.1035E+02  -1.18725   2.96812
    2965.00   4.472025     0.1026E+02  -1.19103   2.97758
    2975.00   4.473487     0.1016E+02  -1.19551   2.98878
    2985.00   4.474944     0.1004E+02  -1.20053   3.00133
    2995.00   4.476397     0.9930E+01  -1.20528   3.01320
    3005.00   4.477844     0.9831E+01  -1.20962   3.02405
    3015.00   4.479287     0.9753E+01  -1.21310   3.03276
    3025.00   4.480725     0.9644E+01  -1.21799   3.04497
    3035.00   4.482159     0.9528E+01  -1.22324   3.05811
    3045.00   4.483587     0.9470E+01  -1.22590   3.06475
    3055.00   4.485011     0.9372E+01  -1.23039   3.07598
    3065.00   4.486430     0.9279E+01  -1.23474   3.08686
    3075.00   4.487845     0.9204E+01  -1.23826   3.09566
    3085.00   4.489255     0.9094E+01  -1.24350   3.10875
    3095.00   4.490661     0.9015E+01  -1.24727   3.11817
    3105.00   4.492062     0.8944E+01  -1.25070   3.12675
    3115.00   4.493458     0.8817E+01  -1.25692   3.14231
    3125.00   4.494850     0.8761E+01  -1.25971   3.14927
    3135.00   4.496238     0.8677E+01  -1.26389   3.15972
    3145.00   4.497621     0.8589E+01  -1.26831   3.17077
    3155.00   4.499000     0.8492E+01  -1.27324   3.18309
    3165.00   4.500374     0.8405E+01  -1.27770   3.19425
    3175.00   4.501744     0.8335E+01  -1.28136   3.20339
    3185.00   4.503109     0.8250E+01  -1.28578   3.21445
    3195.00   4.504471     0.8174E+01  -1.28978   3.22446
    3210.00   4.506505     0.8044E+01  -1.29675   3.24187
    3230.00   4.509202     0.7879E+01  -1.30575   3.26437
    3250.00   4.511883     0.7720E+01  -1.31462   3.28656
    3270.00   4.514548     0.7559E+01  -1.32378   3.30946
    3290.00   4.517196     0.7392E+01  -1.33346   3.33365
    3310.00   4.519828     0.7250E+01  -1.34192   3.35481
    3330.00   4.522444     0.7094E+01  -1.35135   3.37836
    3350.00   4.525045     0.6961E+01  -1.35960   3.39899
    3370.00   4.527630     0.6812E+01  -1.36894   3.42235
    3390.00   4.530200     0.6664E+01  -1.37849   3.44623
    3410.00   4.532754     0.6521E+01  -1.38793   3.46984
    3430.00   4.535294     0.6401E+01  -1.39602   3.49006
    3450.00   4.537819     0.6272E+01  -1.40482   3.51205
    3470.00   4.540329     0.6140E+01  -1.41406   3.53514
    3490.00   4.542826     0.6015E+01  -1.42298   3.55745
    3510.00   4.545307     0.5896E+01  -1.43169   3.57921
    3530.00   4.547775     0.5767E+01  -1.44126   3.60316
    3550.00   4.550228     0.5656E+01  -1.44969   3.62423
    3570.00   4.552669     0.5539E+01  -1.45878   3.64694
    3590.00   4.555095     0.5429E+01  -1.46753   3.66882
    3610.00   4.557508     0.5327E+01  -1.47574   3.68936
    3630.00   4.559907     0.5220E+01  -1.48460   3.71151
    3650.00   4.562293     0.5107E+01  -1.49409   3.73523
    3670.00   4.564666     0.5003E+01  -1.50302   3.75755
    3690.00   4.567026     0.4892E+01  -1.51275   3.78186
    3710.00   4.569374     0.4792E+01  -1.52176   3.80439
    3730.00   4.571709     0.4710E+01  -1.52919   3.82297
    3750.00   4.574031     0.4600E+01  -1.53945   3.84862
    3770.00   4.576342     0.4529E+01  -1.54622   3.86556
    3790.00   4.578639     0.4439E+01  -1.55497   3.88743
    3810.00   4.580925     0.4357E+01  -1.56308   3.90770
    3830.00   4.583199     0.4278E+01  -1.57099   3.92749
    3850.00   4.585461     0.4198E+01  -1.57921   3.94804
    3870.00   4.587711     0.4107E+01  -1.58870   3.97175
    3890.00   4.589950     0.4034E+01  -1.59653   3.99133
    3910.00   4.592176     0.3961E+01  -1.60447   4.01118
    3930.00   4.594393     0.3886E+01  -1.61271   4.03178
    3950.00   4.596597     0.3803E+01  -1.62208   4.05520
    3970.00   4.598790     0.3736E+01  -1.62984   4.07460
    3990.00   4.600973     0.3653E+01  -1.63958   4.09895
    4010.00   4.603145     0.3594E+01  -1.64666   4.11664
    4030.00   4.605305     0.3534E+01  -1.65401   4.13504
    4050.00   4.607455     0.3461E+01  -1.66305   4.15762
    4070.00   4.609594     0.3403E+01  -1.67043   4.17607
    4090.00   4.611723     0.3342E+01  -1.67829   4.19573
    4110.00   4.613842     0.3284E+01  -1.68587   4.21467
    4130.00   4.615950     0.3229E+01  -1.69320   4.23299
    4150.00   4.618048     0.3170E+01  -1.70122   4.25305
    4170.00   4.620136     0.3114E+01  -1.70887   4.27218
    4190.00   4.622214     0.3058E+01  -1.71685   4.29212
    4210.00   4.624282     0.3001E+01  -1.72498   4.31245
    4230.00   4.626340     0.2961E+01  -1.73083   4.32708
    4250.00   4.628389     0.2905E+01  -1.73912   4.34780
    4270.00   4.630428     0.2860E+01  -1.74589   4.36473
    4290.00   4.632457     0.2728E+01  -1.76641   4.41601
    4310.00   4.634478     0.2595E+01  -1.78811   4.47027
    4330.00   4.636488     0.2587E+01  -1.78946   4.47366
    4350.00   4.638489     0.2474E+01  -1.80883   4.52207
    4370.00   4.640481     0.2407E+01  -1.82083   4.55207
    4390.00   4.642465     0.2356E+01  -1.82998   4.57494
    4410.00   4.644439     0.2264E+01  -1.84744   4.61860
    4430.00   4.646404     0.2230E+01  -1.85398   4.63496
    4450.00   4.648360     0.2189E+01  -1.86203   4.65507
    4470.00   4.650308     0.2112E+01  -1.87748   4.69370
    4490.00   4.652246     0.2109E+01  -1.87822   4.69556
    4510.00   4.654177     0.2055E+01  -1.88937   4.72343
    4530.00   4.656098     0.2002E+01  -1.90077   4.75192
    4550.00   4.658011     0.1991E+01  -1.90309   4.75772
    4570.00   4.659916     0.1967E+01  -1.90841   4.77102
    4590.00   4.661813     0.1905E+01  -1.92234   4.80585
    4610.00   4.663701     0.1907E+01  -1.92193   4.80483
    4630.00   4.665581     0.1870E+01  -1.93042   4.82606
    4650.00   4.667453     0.1851E+01  -1.93493   4.83733
    4670.00   4.669317     0.1838E+01  -1.93793   4.84483
    4690.00   4.671173     0.1803E+01  -1.94621   4.86552
    4710.00   4.673021     0.1773E+01  -1.95362   4.88406
    4730.00   4.674861     0.1773E+01  -1.95356   4.88390
    4750.00   4.676694     0.1734E+01  -1.96330   4.90824
    4770.00   4.678518     0.1711E+01  -1.96901   4.92252
    4790.00   4.680336     0.1694E+01  -1.97329   4.93322
    4810.00   4.682145     0.1653E+01  -1.98390   4.95975
    4830.00   4.683947     0.1656E+01  -1.98315   4.95788
    4850.00   4.685741     0.1626E+01  -1.99112   4.97779
    4870.00   4.687529     0.1595E+01  -1.99957   4.99894
    4890.00   4.689309     0.1573E+01  -2.00539   5.01348
    4910.00   4.691082     0.1554E+01  -2.01072   5.02679
    4930.00   4.692847     0.1530E+01  -2.01765   5.04412
    4950.00   4.694605     0.1504E+01  -2.02487   5.06218
    4970.00   4.696356     0.1493E+01  -2.02828   5.07069
    4990.00   4.698101     0.1472E+01  -2.03447   5.08617
    5010.00   4.699838     0.1453E+01  -2.03996   5.09989
    5030.00   4.701568     0.1434E+01  -2.04566   5.11416
    5050.00   4.703291     0.1404E+01  -2.05486   5.13714
    5070.00   4.705008     0.1392E+01  -2.05849   5.14623
    5090.00   4.706717     0.1375E+01  -2.06381   5.15952
    5110.00   4.708421     0.1351E+01  -2.07164   5.17909
    5130.00   4.710117     0.1341E+01  -2.07475   5.18688
    5150.00   4.711807     0.1318E+01  -2.08242   5.20604
    5170.00   4.713490     0.1312E+01  -2.08445   5.21113
    5190.00   4.715167     0.1287E+01  -2.09252   5.23130
    5210.00   4.716838     0.1274E+01  -2.09720   5.24300
    5230.00   4.718502     0.1252E+01  -2.10454   5.26135
    5250.00   4.720160     0.1242E+01  -2.10814   5.27035
    5270.00   4.721810     0.1235E+01  -2.11068   5.27671
    5290.00   4.723455     0.1207E+01  -2.12047   5.30117
    5310.00   4.725095     0.1192E+01  -2.12589   5.31472
    5330.00   4.726727     0.1181E+01  -2.12993   5.32482
    5350.00   4.728354     0.1167E+01  -2.13510   5.33776
    5370.00   4.729974     0.1154E+01  -2.14001   5.35002
    5390.00   4.731589     0.1141E+01  -2.14499   5.36247
    5410.00   4.733197     0.1127E+01  -2.15025   5.37563
    5430.00   4.734800     0.1107E+01  -2.15805   5.39513
    5450.00   4.736397     0.1101E+01  -2.16043   5.40108
    5470.00   4.737988     0.1084E+01  -2.16739   5.41846
    5490.00   4.739573     0.1072E+01  -2.17211   5.43028
    5510.00   4.741152     0.1058E+01  -2.17785   5.44463
    5530.00   4.742725     0.1058E+01  -2.17787   5.44468
    5550.00   4.744293     0.1031E+01  -2.18878   5.47196
    5570.00   4.745855     0.1028E+01  -2.19016   5.47541
    5590.00   4.747412     0.1011E+01  -2.19738   5.49345
    5610.00   4.748963     0.1003E+01  -2.20101   5.50252
    5630.00   4.750508     0.9854E+00  -2.20861   5.52153
    5650.00   4.752048     0.9796E+00  -2.21118   5.52796
    5670.00   4.753583     0.9676E+00  -2.21653   5.54132
    5690.00   4.755112     0.9511E+00  -2.22402   5.56006
    5710.00   4.756636     0.9462E+00  -2.22627   5.56568
    5730.00   4.758155     0.9342E+00  -2.23179   5.57948
    5750.00   4.759668     0.9231E+00  -2.23698   5.59245
    5770.00   4.761176     0.9110E+00  -2.24273   5.60684
    5790.00   4.762679     0.9039E+00  -2.24612   5.61531
    5810.00   4.764176     0.8902E+00  -2.25274   5.63185
    5830.00   4.765669     0.8806E+00  -2.25747   5.64367
    5850.00   4.767156     0.8708E+00  -2.26233   5.65583
    5870.00   4.768638     0.8577E+00  -2.26891   5.67226
    5890.00   4.770115     0.8485E+00  -2.27358   5.68394
    5910.00   4.771587     0.8393E+00  -2.27830   5.69576
    5930.00   4.773055     0.8303E+00  -2.28299   5.70746
    5950.00   4.774517     0.8190E+00  -2.28897   5.72242
    5970.00   4.775974     0.8117E+00  -2.29287   5.73217
    5990.00   4.777427     0.8021E+00  -2.29801   5.74501
    6010.00   4.778874     0.7928E+00  -2.30309   5.75773
    6030.00   4.780317     0.7834E+00  -2.30825   5.77062
    6050.00   4.781755     0.7724E+00  -2.31441   5.78602
    6070.00   4.783189     0.7637E+00  -2.31929   5.79823
    6090.00   4.784617     0.7548E+00  -2.32440   5.81101
    6110.00   4.786041     0.7451E+00  -2.33001   5.82503
    6130.00   4.787460     0.7378E+00  -2.33431   5.83576
    6150.00   4.788875     0.7298E+00  -2.33901   5.84753
    6170.00   4.790285     0.7225E+00  -2.34343   5.85857
    6190.00   4.791691     0.7139E+00  -2.34861   5.87152
    6210.00   4.793092     0.7063E+00  -2.35325   5.88313
    6230.00   4.794488     0.6970E+00  -2.35903   5.89756
    6250.00   4.795880     0.6879E+00  -2.36471   5.91176
    6270.00   4.797267     0.6801E+00  -2.36966   5.92415
    6290.00   4.798651     0.6729E+00  -2.37431   5.93578
    6310.00   4.800029     0.6648E+00  -2.37953   5.94883
    6330.00   4.801404     0.6587E+00  -2.38352   5.95881
    6350.00   4.802773     0.6504E+00  -2.38908   5.97270
    6370.00   4.804139     0.6444E+00  -2.39309   5.98271
    6390.00   4.805501     0.6356E+00  -2.39903   5.99758
    6420.00   4.807535     0.6254E+00  -2.40608   6.01520
    6460.00   4.810232     0.6109E+00  -2.41626   6.04065
    6500.00   4.812913     0.5974E+00  -2.42595   6.06488
    6540.00   4.815578     0.5840E+00  -2.43580   6.08949
    6580.00   4.818226     0.5715E+00  -2.44520   6.11299
    6620.00   4.820858     0.5586E+00  -2.45517   6.13793
    6660.00   4.823474     0.5463E+00  -2.46477   6.16193
    6700.00   4.826075     0.5345E+00  -2.47429   6.18572
    6740.00   4.828660     0.5225E+00  -2.48413   6.21033
    6780.00   4.831230     0.5112E+00  -2.49362   6.23404
    6820.00   4.833784     0.5001E+00  -2.50321   6.25801
    6860.00   4.836324     0.4895E+00  -2.51249   6.28122
    6900.00   4.838849     0.4788E+00  -2.52209   6.30521
    6940.00   4.841359     0.4686E+00  -2.53146   6.32864
    6980.00   4.843855     0.4586E+00  -2.54077   6.35191
    7020.00   4.846337     0.4487E+00  -2.55027   6.37568
    7060.00   4.848804     0.4394E+00  -2.55936   6.39839
    7100.00   4.851258     0.4301E+00  -2.56864   6.42160
    7140.00   4.853698     0.4212E+00  -2.57777   6.44442
    7180.00   4.856124     0.4123E+00  -2.58699   6.46746
    7220.00   4.858537     0.4038E+00  -2.59606   6.49014
    7260.00   4.860937     0.3954E+00  -2.60519   6.51296
    7300.00   4.863323     0.3873E+00  -2.61416   6.53540
    7340.00   4.865696     0.3793E+00  -2.62324   6.55811
    7380.00   4.868056     0.3717E+00  -2.63209   6.58023
    7420.00   4.870404     0.3639E+00  -2.64124   6.60310
    7460.00   4.872739     0.3565E+00  -2.65020   6.62551
    7500.00   4.875061     0.3494E+00  -2.65890   6.64724
    7540.00   4.877371     0.3424E+00  -2.66773   6.66932
    7580.00   4.879669     0.3358E+00  -2.67618   6.69045
    7620.00   4.881955     0.3291E+00  -2.68488   6.71219
    7660.00   4.884229     0.3226E+00  -2.69352   6.73380
    7700.00   4.886491     0.3163E+00  -2.70220   6.75550
    7740.00   4.888741     0.3101E+00  -2.71070   6.77675
    7780.00   4.890980     0.3041E+00  -2.71920   6.79801
    7820.00   4.893207     0.2982E+00  -2.72771   6.81927
    7860.00   4.895422     0.2925E+00  -2.73614   6.84034
    7900.00   4.897627     0.2869E+00  -2.74455   6.86137
    7940.00   4.899820     0.2814E+00  -2.75292   6.88231
    7980.00   4.902003     0.2761E+00  -2.76122   6.90305
    8020.00   4.904174     0.2708E+00  -2.76965   6.92411
    8060.00   4.906335     0.2657E+00  -2.77789   6.94472
    8100.00   4.908485     0.2608E+00  -2.78600   6.96500
    8140.00   4.910625     0.2558E+00  -2.79426   6.98564
    8180.00   4.912753     0.2512E+00  -2.80229   7.00573
    8220.00   4.914872     0.2465E+00  -2.81037   7.02592
    8260.00   4.916980     0.2420E+00  -2.81846   7.04614
    8300.00   4.919078     0.2376E+00  -2.82646   7.06615
    8340.00   4.921166     0.2332E+00  -2.83457   7.08642
    8380.00   4.923244     0.2289E+00  -2.84253   7.10632
    8420.00   4.925312     0.2249E+00  -2.85031   7.12578
    8460.00   4.927370     0.2208E+00  -2.85823   7.14559
    8500.00   4.929419     0.2169E+00  -2.86607   7.16517
    8540.00   4.931458     0.2130E+00  -2.87385   7.18462
    8580.00   4.933487     0.2092E+00  -2.88160   7.20401
    8620.00   4.935507     0.2055E+00  -2.88933   7.22332
    8660.00   4.937518     0.2019E+00  -2.89700   7.24249
    8700.00   4.939519     0.1984E+00  -2.90467   7.26168
    8740.00   4.941511     0.1950E+00  -2.91231   7.28078
    8780.00   4.943495     0.1916E+00  -2.91993   7.29983
    8820.00   4.945469     0.1882E+00  -2.92757   7.31893
    8860.00   4.947433     0.1850E+00  -2.93509   7.33773
    8900.00   4.949390     0.1818E+00  -2.94264   7.35659
    8940.00   4.951338     0.1787E+00  -2.95003   7.37506
    8980.00   4.953277     0.1756E+00  -2.95761   7.39402
    9020.00   4.955207     0.1727E+00  -2.96487   7.41218
    9060.00   4.957129     0.1698E+00  -2.97221   7.43052
    9100.00   4.959042     0.1669E+00  -2.97980   7.44951
    9140.00   4.960946     0.1642E+00  -2.98696   7.46741
    9180.00   4.962843     0.1614E+00  -2.99423   7.48557
    9220.00   4.964731     0.1588E+00  -3.00139   7.50348
    9260.00   4.966611     0.1562E+00  -3.00864   7.52159
    9300.00   4.968483     0.1536E+00  -3.01582   7.53954
    9340.00   4.970347     0.1511E+00  -3.02301   7.55752
    9380.00   4.972203     0.1486E+00  -3.03011   7.57528
    9420.00   4.974051     0.1462E+00  -3.03722   7.59306
    9460.00   4.975891     0.1438E+00  -3.04433   7.61083
    9500.00   4.977724     0.1415E+00  -3.05137   7.62843
    9540.00   4.979548     0.1393E+00  -3.05839   7.64597
    9580.00   4.981365     0.1370E+00  -3.06536   7.66341
    9620.00   4.983175     0.1349E+00  -3.07235   7.68087
    9660.00   4.984977     0.1327E+00  -3.07925   7.69813
    9700.00   4.986772     0.1306E+00  -3.08615   7.71538
    9740.00   4.988559     0.1285E+00  -3.09327   7.73318
    9780.00   4.990339     0.1266E+00  -3.09997   7.74993
    9820.00   4.992111     0.1246E+00  -3.10674   7.76685
    9860.00   4.993877     0.1227E+00  -3.11353   7.78383
    9900.00   4.995635     0.1208E+00  -3.12029   7.80072
    9940.00   4.997386     0.1189E+00  -3.12707   7.81768
    9980.00   4.999130     0.1171E+00  -3.13379   7.83446
   10020.00   5.000868     0.1153E+00  -3.14048   7.85119
   20000.00   5.301030     0.7788E-02  -4.31080  10.77699
   40000.00   5.602060     0.5017E-03  -5.50182  13.75454
   60000.00   5.778151     0.9980E-04  -6.20310  15.50776
   80000.00   5.903090     0.3164E-04  -6.70203  16.75507
  100000.00   6.000000     0.1296E-04  -7.08962  17.72405
  120000.00   6.079181     0.6246E-05  -7.40666  18.51665
  140000.00   6.146128     0.3368E-05  -7.67489  19.18721
  160000.00   6.204120     0.1972E-05  -7.90737  19.76842
