age =   16.0    [Fe/H] =    0.25

wavele(nm) log wave(A)   Hlam       log(Hlam/Hlam(V))  Hlam(mag(V)) 
      90.50   2.956649     0.7223E-14 -16.12319  40.30798
      91.50   2.961421     0.1225E-12 -14.89379  37.23448
      92.50   2.966142     0.5310E-12 -14.25677  35.64193
      93.50   2.970812     0.7699E-12 -14.09547  35.23868
      94.50   2.975432     0.1181E-11 -13.90968  34.77419
      95.50   2.980003     0.1801E-11 -13.72630  34.31574
      96.50   2.984527     0.2873E-11 -13.52350  33.80875
      97.50   2.989005     0.4062E-11 -13.37320  33.43299
      98.50   2.993436     0.5940E-11 -13.20809  33.02023
      99.50   2.997823     0.8450E-11 -13.05507  32.63766
     100.50   3.002166     0.1269E-10 -12.87830  32.19575
     101.50   3.006466     0.1820E-10 -12.72179  31.80448
     102.50   3.010724     0.2290E-10 -12.62210  31.55526
     103.50   3.014940     0.3687E-10 -12.41528  31.03820
     104.50   3.019116     0.5244E-10 -12.26224  30.65559
     105.50   3.023252     0.6826E-10 -12.14776  30.36939
     106.50   3.027350     0.9734E-10 -11.99362  29.98404
     107.50   3.031409     0.1341E-09 -11.85447  29.63616
     108.50   3.035430     0.1838E-09 -11.71759  29.29398
     109.50   3.039414     0.2357E-09 -11.60955  29.02387
     110.50   3.043362     0.3363E-09 -11.45521  28.63802
     111.50   3.047275     0.4613E-09 -11.31794  28.29486
     112.50   3.051152     0.6419E-09 -11.17444  27.93609
     113.50   3.054996     0.9086E-09 -11.02350  27.55876
     114.50   3.058805     0.1217E-08 -10.89677  27.24192
     115.50   3.062582     0.1567E-08 -10.78693  26.96733
     116.50   3.066326     0.2080E-08 -10.66389  26.65973
     117.50   3.070038     0.2747E-08 -10.54300  26.35751
     118.50   3.073718     0.3416E-08 -10.44843  26.12107
     119.50   3.077368     0.4034E-08 -10.37617  25.94044
     120.50   3.080987     0.4961E-08 -10.28632  25.71579
     121.50   3.084576     0.3992E-08 -10.38071  25.95178
     122.50   3.088136     0.7696E-08 -10.09565  25.23912
     123.50   3.091667     0.1090E-07  -9.94454  24.86136
     124.50   3.095169     0.1374E-07  -9.84394  24.60985
     125.50   3.098644     0.1681E-07  -9.75625  24.39062
     126.50   3.102091     0.2043E-07  -9.67155  24.17888
     127.50   3.105510     0.2518E-07  -9.58090  23.95226
     128.50   3.108903     0.2951E-07  -9.51192  23.77980
     129.50   3.112270     0.3630E-07  -9.42203  23.55507
     130.50   3.115611     0.4287E-07  -9.34974  23.37434
     131.50   3.118926     0.5346E-07  -9.25390  23.13476
     132.50   3.122216     0.6138E-07  -9.19384  22.98459
     133.50   3.125481     0.7249E-07  -9.12162  22.80405
     134.50   3.128722     0.8882E-07  -9.03339  22.58347
     135.50   3.131939     0.1088E-06  -8.94527  22.36316
     136.50   3.135133     0.1259E-06  -8.88177  22.20442
     137.50   3.138303     0.1473E-06  -8.81377  22.03443
     138.50   3.141450     0.1721E-06  -8.74609  21.86523
     139.50   3.144574     0.2033E-06  -8.67368  21.68419
     140.50   3.147676     0.2495E-06  -8.58483  21.46208
     141.50   3.150756     0.2963E-06  -8.51017  21.27543
     142.50   3.153815     0.3527E-06  -8.43453  21.08633
     143.50   3.156852     0.4250E-06  -8.35350  20.88374
     144.20   3.158965     0.5070E-06  -8.27692  20.69231
     144.70   3.160469     0.5144E-06  -8.27058  20.67645
     145.50   3.162863     0.5980E-06  -8.20516  20.51291
     146.50   3.165838     0.7387E-06  -8.11346  20.28364
     147.50   3.168792     0.8644E-06  -8.04518  20.11294
     148.50   3.171726     0.9872E-06  -7.98748  19.96870
     149.50   3.174641     0.1222E-05  -7.89495  19.73738
     150.50   3.177536     0.1473E-05  -7.81383  19.53457
     151.20   3.179552     0.1411E-05  -7.83246  19.58116
     151.70   3.180986     0.1634E-05  -7.76875  19.42188
     152.50   3.183270     0.2944E-05  -7.51295  18.78238
     153.50   3.186108     0.4574E-05  -7.32160  18.30401
     154.50   3.188928     0.4100E-05  -7.36916  18.42290
     155.50   3.191730     0.6427E-05  -7.17389  17.93473
     156.50   3.194514     0.6464E-05  -7.17138  17.92845
     157.50   3.197281     0.1381E-04  -6.84160  17.10399
     158.50   3.200029     0.1660E-04  -6.76174  16.90436
     159.50   3.202761     0.1949E-04  -6.69203  16.73007
     160.50   3.205475     0.2067E-04  -6.66654  16.66635
     161.50   3.208173     0.2263E-04  -6.62712  16.56781
     162.50   3.210853     0.2573E-04  -6.57144  16.42861
     163.50   3.213518     0.3286E-04  -6.46523  16.16307
     164.50   3.216166     0.4668E-04  -6.31281  15.78201
     165.50   3.218798     0.3460E-04  -6.44288  16.10721
     166.50   3.221414     0.5723E-04  -6.22428  15.56069
     167.20   3.223236     0.4143E-04  -6.36461  15.91153
     167.70   3.224533     0.1540E-03  -5.79433  14.48582
     168.50   3.226600     0.1741E-03  -5.74103  14.35257
     169.50   3.229170     0.2244E-03  -5.63088  14.07719
     170.50   3.231725     0.2401E-03  -5.60159  14.00398
     171.50   3.234264     0.2334E-03  -5.61372  14.03429
     172.50   3.236789     0.3250E-03  -5.46996  13.67490
     173.50   3.239300     0.3906E-03  -5.39016  13.47541
     174.50   3.241796     0.5550E-03  -5.23758  13.09395
     175.50   3.244277     0.7191E-03  -5.12510  12.81275
     176.50   3.246745     0.7124E-03  -5.12915  12.82287
     177.50   3.249198     0.7387E-03  -5.11340  12.78351
     178.50   3.251638     0.1063E-02  -4.95531  12.38826
     179.50   3.254065     0.1179E-02  -4.91050  12.27625
     180.50   3.256477     0.1430E-02  -4.82664  12.06659
     181.50   3.258877     0.1296E-02  -4.86913  12.17282
     182.50   3.261263     0.1783E-02  -4.73078  11.82695
     183.50   3.263636     0.1806E-02  -4.72528  11.81320
     184.50   3.265996     0.1459E-02  -4.81793  12.04483
     185.50   3.268344     0.1943E-02  -4.69333  11.73333
     186.50   3.270679     0.2399E-02  -4.60191  11.50477
     187.50   3.273001     0.2588E-02  -4.56887  11.42218
     188.50   3.275311     0.2852E-02  -4.52681  11.31704
     189.50   3.277609     0.3845E-02  -4.39700  10.99250
     190.50   3.279895     0.3715E-02  -4.41196  11.02990
     191.50   3.282169     0.4373E-02  -4.34109  10.85271
     192.50   3.284431     0.4333E-02  -4.34516  10.86290
     193.50   3.286681     0.2874E-02  -4.52343  11.30857
     194.50   3.288920     0.5660E-02  -4.22908  10.57271
     195.50   3.291147     0.6328E-02  -4.18064  10.45161
     196.70   3.293804     0.8031E-02  -4.07711  10.19277
     197.60   3.295787     0.8197E-02  -4.06826  10.17064
     198.40   3.297542     0.9220E-02  -4.01718  10.04295
     199.50   3.299943     0.9265E-02  -4.01503  10.03757
     200.50   3.302114     0.9310E-02  -4.01295  10.03237
     201.50   3.304275     0.1050E-01  -3.96088   9.90221
     202.50   3.306425     0.8523E-02  -4.05130  10.12826
     203.50   3.308564     0.1179E-01  -3.91022   9.77555
     204.50   3.310693     0.1349E-01  -3.85193   9.62982
     205.50   3.312812     0.1465E-01  -3.81612   9.54031
     206.50   3.314920     0.1467E-01  -3.81535   9.53837
     207.40   3.316809     0.1536E-01  -3.79560   9.48900
     207.80   3.317646     0.3166E-01  -3.48133   8.70332
     208.50   3.319106     0.4025E-01  -3.37716   8.44290
     209.50   3.321184     0.3950E-01  -3.38525   8.46313
     210.50   3.323252     0.4068E-01  -3.37248   8.43120
     211.50   3.325310     0.4801E-01  -3.30057   8.25144
     212.50   3.327359     0.4434E-01  -3.33511   8.33777
     213.50   3.329398     0.5033E-01  -3.28007   8.20017
     214.50   3.331427     0.5722E-01  -3.22433   8.06083
     215.50   3.333447     0.5379E-01  -3.25120   8.12799
     216.50   3.335458     0.5192E-01  -3.26660   8.16649
     217.50   3.337459     0.5314E-01  -3.25644   8.14110
     218.50   3.339452     0.6360E-01  -3.17847   7.94617
     219.50   3.341434     0.6979E-01  -3.13813   7.84532
     220.50   3.343409     0.7130E-01  -3.12880   7.82199
     221.50   3.345374     0.6160E-01  -3.19233   7.98082
     222.50   3.347330     0.7412E-01  -3.11194   7.77984
     223.50   3.349277     0.1042E+00  -2.96402   7.41004
     224.50   3.351216     0.1059E+00  -2.95703   7.39257
     225.50   3.353147     0.9224E-01  -3.01699   7.54247
     226.50   3.355068     0.7293E-01  -3.11899   7.79747
     227.50   3.356982     0.8610E-01  -3.04691   7.61728
     228.50   3.358886     0.1233E+00  -2.89108   7.22770
     229.50   3.360783     0.1107E+00  -2.93790   7.34476
     230.50   3.362671     0.1093E+00  -2.94330   7.35824
     231.50   3.364551     0.1218E+00  -2.89641   7.24104
     232.50   3.366423     0.1216E+00  -2.89705   7.24262
     233.50   3.368287     0.1349E+00  -2.85184   7.12959
     234.50   3.370143     0.9258E-01  -3.01540   7.53849
     235.50   3.371991     0.1338E+00  -2.85530   7.13826
     236.50   3.373831     0.1075E+00  -2.95041   7.37602
     237.50   3.375664     0.1280E+00  -2.87484   7.18711
     238.50   3.377488     0.1041E+00  -2.96459   7.41147
     239.50   3.379306     0.1219E+00  -2.89579   7.23948
     240.50   3.381115     0.1430E+00  -2.82667   7.06668
     241.50   3.382917     0.1255E+00  -2.88328   7.20819
     242.50   3.384712     0.1922E+00  -2.69807   6.74516
     243.50   3.386499     0.2148E+00  -2.64994   6.62485
     244.50   3.388279     0.2657E+00  -2.55751   6.39378
     245.50   3.390052     0.2899E+00  -2.51966   6.29914
     246.50   3.391817     0.2214E+00  -2.63679   6.59197
     247.50   3.393575     0.2127E+00  -2.65415   6.63537
     248.50   3.395326     0.8917E-01  -3.03170   7.57926
     249.50   3.397071     0.1346E+00  -2.85285   7.13212
     250.50   3.398808     0.2308E+00  -2.61874   6.54685
     251.30   3.400192     0.1231E+00  -2.89172   7.22929
     251.80   3.401056     0.8836E-01  -3.03562   7.58906
     252.50   3.402261     0.1015E+00  -2.97540   7.43850
     253.50   3.403978     0.2369E+00  -2.60737   6.51843
     254.50   3.405688     0.2489E+00  -2.58585   6.46462
     255.50   3.407391     0.5726E+00  -2.22402   5.56006
     256.50   3.409087     0.3950E+00  -2.38531   5.96328
     257.50   3.410777     0.5813E+00  -2.21749   5.54373
     258.50   3.412461     0.5329E+00  -2.25523   5.63808
     259.50   3.414137     0.5214E+00  -2.26474   5.66184
     260.50   3.415808     0.5086E+00  -2.27548   5.68870
     261.50   3.417472     0.4550E+00  -2.32391   5.80978
     262.50   3.419129     0.6398E+00  -2.17585   5.43963
     263.50   3.420781     0.1288E+01  -1.87202   4.68006
     264.50   3.422426     0.1547E+01  -1.79239   4.48098
     265.50   3.424065     0.2859E+01  -1.52562   3.81404
     266.50   3.425697     0.1495E+01  -1.80730   4.51825
     267.50   3.427324     0.1606E+01  -1.77624   4.44060
     268.50   3.428944     0.2155E+01  -1.64852   4.12129
     269.50   3.430559     0.1249E+01  -1.88521   4.71302
     270.50   3.432167     0.1893E+01  -1.70468   4.26171
     271.50   3.433770     0.1252E+01  -1.88432   4.71080
     272.50   3.435366     0.7376E+00  -2.11410   5.28525
     273.50   3.436957     0.1079E+01  -1.94900   4.87250
     274.50   3.438542     0.7975E+00  -2.08017   5.20043
     275.50   3.440122     0.1096E+01  -1.94214   4.85535
     276.50   3.441695     0.1512E+01  -1.80244   4.50610
     277.50   3.443263     0.1644E+01  -1.76589   4.41473
     278.50   3.444825     0.9876E+00  -1.98734   4.96834
     279.50   3.446382     0.4977E+00  -2.28490   5.71225
     280.50   3.447933     0.6044E+00  -2.20059   5.50147
     281.50   3.449478     0.1459E+01  -1.81779   4.54449
     282.50   3.451018     0.1905E+01  -1.70198   4.25494
     283.50   3.452553     0.1524E+01  -1.79882   4.49705
     284.50   3.454082     0.8645E+00  -2.04511   5.11277
     285.50   3.455606     0.4110E+00  -2.36807   5.92018
     286.50   3.457125     0.1269E+01  -1.87855   4.69638
     287.50   3.458638     0.2352E+01  -1.61041   4.02601
     288.50   3.460146     0.2548E+01  -1.57568   3.93920
     289.50   3.461648     0.3852E+01  -1.39622   3.49054
     291.00   3.463893     0.6342E+01  -1.17970   2.94924
     293.00   3.466868     0.5637E+01  -1.23082   3.07704
     295.00   3.469822     0.5169E+01  -1.26852   3.17130
     297.00   3.472756     0.5366E+01  -1.25225   3.13063
     299.00   3.475671     0.5648E+01  -1.23000   3.07500
     301.00   3.478566     0.5328E+01  -1.25531   3.13828
     303.00   3.481443     0.6482E+01  -1.17019   2.92547
     305.00   3.484300     0.6683E+01  -1.15691   2.89226
     307.00   3.487138     0.7868E+01  -1.08605   2.71512
     309.00   3.489959     0.6902E+01  -1.14293   2.85733
     311.00   3.492760     0.9653E+01  -0.99725   2.49314
     313.00   3.495544     0.8259E+01  -1.06497   2.66243
     315.00   3.498311     0.9024E+01  -1.02649   2.56622
     317.00   3.501059     0.1070E+02  -0.95236   2.38091
     319.00   3.503791     0.8606E+01  -1.04710   2.61774
     321.00   3.506505     0.9479E+01  -1.00514   2.51284
     323.00   3.509202     0.8014E+01  -1.07805   2.69513
     325.00   3.511883     0.1289E+02  -0.87170   2.17925
     327.00   3.514548     0.1568E+02  -0.78660   1.96649
     329.00   3.517196     0.1577E+02  -0.78414   1.96036
     331.00   3.519828     0.1378E+02  -0.84264   2.10660
     333.00   3.522444     0.1466E+02  -0.81575   2.03938
     335.00   3.525045     0.1404E+02  -0.83441   2.08603
     337.00   3.527630     0.9246E+01  -1.01594   2.53985
     339.00   3.530200     0.1107E+02  -0.93778   2.34446
     341.00   3.532754     0.1164E+02  -0.91609   2.29023
     343.00   3.535294     0.1273E+02  -0.87691   2.19226
     345.00   3.537819     0.1415E+02  -0.83111   2.07777
     347.00   3.540329     0.1507E+02  -0.80365   2.00913
     349.00   3.542825     0.1790E+02  -0.72908   1.82269
     351.00   3.545307     0.1955E+02  -0.69067   1.72669
     353.00   3.547775     0.1647E+02  -0.76518   1.91294
     355.00   3.550228     0.1890E+02  -0.70544   1.76361
     357.00   3.552668     0.1184E+02  -0.90863   2.27156
     359.00   3.555094     0.1307E+02  -0.86568   2.16420
     361.00   3.557507     0.1826E+02  -0.72045   1.80113
     363.00   3.559907     0.1988E+02  -0.68339   1.70848
     364.00   3.561101     0.2026E+02  -0.67531   1.68828
     365.00   3.562293     0.2259E+02  -0.62790   1.56974
     367.00   3.564666     0.2570E+02  -0.57195   1.42988
     369.00   3.567026     0.2128E+02  -0.65398   1.63495
     371.00   3.569374     0.2150E+02  -0.64951   1.62377
     373.00   3.571709     0.1109E+02  -0.93704   2.34261
     375.00   3.574031     0.1324E+02  -0.85994   2.14986
     377.00   3.576341     0.2070E+02  -0.66590   1.66474
     379.00   3.578639     0.2136E+02  -0.65231   1.63077
     381.00   3.580925     0.1833E+02  -0.71879   1.79698
     383.00   3.583199     0.8721E+01  -1.04131   2.60327
     385.00   3.585461     0.1250E+02  -0.88494   2.21234
     387.00   3.587711     0.1260E+02  -0.88155   2.20387
     389.00   3.589950     0.1923E+02  -0.69781   1.74454
     391.00   3.592177     0.2543E+02  -0.57659   1.44148
     393.00   3.594393     0.1097E+02  -0.94179   2.35446
     395.00   3.596597     0.2131E+02  -0.65331   1.63326
     397.00   3.598790     0.1448E+02  -0.82112   2.05281
     399.00   3.600973     0.3760E+02  -0.40675   1.01689
     401.00   3.603144     0.4325E+02  -0.34596   0.86489
     403.00   3.605305     0.4183E+02  -0.36041   0.90102
     405.00   3.607455     0.3967E+02  -0.38341   0.95853
     407.00   3.609594     0.3599E+02  -0.42570   1.06424
     409.00   3.611723     0.5029E+02  -0.28046   0.70114
     411.00   3.613842     0.4632E+02  -0.31612   0.79030
     413.00   3.615950     0.4302E+02  -0.34824   0.87061
     415.00   3.618048     0.4129E+02  -0.36606   0.91516
     417.00   3.620136     0.4264E+02  -0.35210   0.88024
     419.00   3.622214     0.4237E+02  -0.35489   0.88722
     421.00   3.624282     0.4276E+02  -0.35091   0.87727
     423.00   3.626340     0.3757E+02  -0.40708   1.01770
     425.00   3.628389     0.4486E+02  -0.33007   0.82517
     427.00   3.630428     0.4196E+02  -0.35901   0.89753
     429.00   3.632457     0.3957E+02  -0.38449   0.96122
     431.00   3.634477     0.3536E+02  -0.43336   1.08340
     433.00   3.636488     0.5548E+02  -0.23774   0.59435
     435.00   3.638489     0.5762E+02  -0.22129   0.55323
     437.00   3.640481     0.6255E+02  -0.18569   0.46422
     439.00   3.642465     0.5258E+02  -0.26110   0.65276
     441.00   3.644439     0.5570E+02  -0.23601   0.59003
     443.00   3.646404     0.6114E+02  -0.19560   0.48899
     445.00   3.648360     0.6289E+02  -0.18329   0.45822
     447.00   3.650307     0.6931E+02  -0.14112   0.35280
     449.00   3.652246     0.7239E+02  -0.12221   0.30551
     451.00   3.654176     0.8653E+02  -0.04474   0.11185
     453.00   3.656098     0.7168E+02  -0.12648   0.31621
     455.00   3.658011     0.7708E+02  -0.09495   0.23737
     457.00   3.659916     0.8581E+02  -0.04837   0.12093
     459.00   3.661813     0.7986E+02  -0.07956   0.19889
     461.00   3.663701     0.8258E+02  -0.06504   0.16259
     463.00   3.665581     0.7954E+02  -0.08132   0.20330
     465.00   3.667453     0.8084E+02  -0.07426   0.18566
     467.00   3.669317     0.8652E+02  -0.04476   0.11191
     469.00   3.671173     0.8452E+02  -0.05492   0.13731
     471.00   3.673021     0.8167E+02  -0.06984   0.17459
     473.00   3.674861     0.8465E+02  -0.05427   0.13569
     475.00   3.676694     0.8715E+02  -0.04163   0.10406
     477.00   3.678518     0.8382E+02  -0.05854   0.14634
     479.00   3.680336     0.8561E+02  -0.04936   0.12341
     481.00   3.682145     0.8670E+02  -0.04386   0.10965
     483.00   3.683947     0.9117E+02  -0.02204   0.05511
     485.00   3.685742     0.8695E+02  -0.04262   0.10656
     487.00   3.687529     0.7996E+02  -0.07903   0.19756
     489.00   3.689309     0.8867E+02  -0.03414   0.08535
     491.00   3.691082     0.8935E+02  -0.03082   0.07706
     493.00   3.692847     0.8702E+02  -0.04228   0.10571
     495.00   3.694605     0.9044E+02  -0.02551   0.06378
     497.00   3.696356     0.8520E+02  -0.05147   0.12868
     499.00   3.698101     0.7831E+02  -0.08807   0.22018
     501.00   3.699838     0.7202E+02  -0.12442   0.31106
     503.00   3.701568     0.7869E+02  -0.08595   0.21488
     505.00   3.703291     0.7829E+02  -0.08819   0.22047
     507.00   3.705008     0.8210E+02  -0.06754   0.16884
     509.00   3.706718     0.7648E+02  -0.09835   0.24587
     511.00   3.708421     0.7937E+02  -0.08221   0.20554
     513.00   3.710117     0.7601E+02  -0.10102   0.25254
     515.00   3.711807     0.7281E+02  -0.11973   0.29932
     517.00   3.713490     0.6188E+02  -0.19033   0.47582
     519.00   3.715167     0.6618E+02  -0.16119   0.40297
     521.00   3.716838     0.7553E+02  -0.10375   0.25939
     523.00   3.718502     0.8793E+02  -0.03775   0.09438
     525.00   3.720159     0.9415E+02  -0.00806   0.02015
     527.00   3.721811     0.7921E+02  -0.08311   0.20779
     529.00   3.723456     0.9734E+02   0.00639  -0.01597
     531.00   3.725095     0.1062E+03   0.04424  -0.11061
     533.00   3.726727     0.8881E+02  -0.03341   0.08353
     535.00   3.728354     0.1013E+03   0.02374  -0.05936
     537.00   3.729974     0.9998E+02   0.01801  -0.04503
     539.00   3.731589     0.9716E+02   0.00558  -0.01396
     541.00   3.733197     0.9616E+02   0.00111  -0.00279
     543.00   3.734800     0.9782E+02   0.00853  -0.02133
     545.00   3.736397     0.9884E+02   0.01303  -0.03257
     547.00   3.737987     0.9665E+02   0.00331  -0.00827
     549.00   3.739572     0.9780E+02   0.00843  -0.02106
     551.00   3.741152     0.9592E+02   0.00000   0.00000
     553.00   3.742725     0.1021E+03   0.02697  -0.06743
     555.00   3.744293     0.1047E+03   0.03799  -0.09497
     557.00   3.745855     0.1026E+03   0.02912  -0.07279
     559.00   3.747412     0.9864E+02   0.01216  -0.03039
     561.00   3.748963     0.1025E+03   0.02869  -0.07173
     563.00   3.750508     0.1021E+03   0.02702  -0.06756
     565.00   3.752048     0.1052E+03   0.04008  -0.10021
     567.00   3.753583     0.1026E+03   0.02913  -0.07283
     569.00   3.755112     0.1074E+03   0.04910  -0.12275
     571.00   3.756636     0.1030E+03   0.03115  -0.07787
     573.00   3.758155     0.1148E+03   0.07823  -0.19558
     575.00   3.759668     0.1095E+03   0.05765  -0.14414
     577.00   3.761176     0.1109E+03   0.06317  -0.15793
     579.00   3.762679     0.1055E+03   0.04136  -0.10340
     581.00   3.764176     0.1114E+03   0.06497  -0.16243
     583.00   3.765669     0.1158E+03   0.08173  -0.20433
     585.00   3.767156     0.1101E+03   0.05992  -0.14980
     587.00   3.768638     0.1089E+03   0.05518  -0.13794
     589.00   3.770115     0.8789E+02  -0.03794   0.09484
     591.00   3.771587     0.1060E+03   0.04321  -0.10802
     593.00   3.773055     0.1085E+03   0.05335  -0.13338
     595.00   3.774517     0.1089E+03   0.05527  -0.13817
     597.00   3.775974     0.1121E+03   0.06759  -0.16897
     599.00   3.777427     0.1101E+03   0.05983  -0.14957
     601.00   3.778874     0.1089E+03   0.05520  -0.13801
     603.00   3.780317     0.1136E+03   0.07362  -0.18404
     605.00   3.781755     0.1165E+03   0.08443  -0.21106
     607.00   3.783189     0.1165E+03   0.08442  -0.21106
     609.00   3.784617     0.1115E+03   0.06534  -0.16334
     611.00   3.786041     0.1124E+03   0.06872  -0.17180
     613.00   3.787461     0.1046E+03   0.03748  -0.09370
     615.00   3.788875     0.1085E+03   0.05341  -0.13353
     617.00   3.790285     0.9791E+02   0.00892  -0.02230
     619.00   3.791691     0.1065E+03   0.04543  -0.11359
     621.00   3.793092     0.1045E+03   0.03741  -0.09352
     623.00   3.794488     0.1003E+03   0.01925  -0.04813
     625.00   3.795880     0.9739E+02   0.00660  -0.01651
     627.00   3.797267     0.1033E+03   0.03202  -0.08004
     629.00   3.798651     0.1072E+03   0.04815  -0.12037
     631.00   3.800029     0.1045E+03   0.03708  -0.09270
     633.00   3.801404     0.1068E+03   0.04651  -0.11627
     635.00   3.802774     0.1068E+03   0.04683  -0.11708
     637.00   3.804139     0.1068E+03   0.04685  -0.11712
     639.00   3.805501     0.1108E+03   0.06257  -0.15642
     641.00   3.806858     0.1084E+03   0.05311  -0.13278
     643.00   3.808211     0.1097E+03   0.05811  -0.14528
     645.00   3.809560     0.1090E+03   0.05543  -0.13857
     647.00   3.810904     0.1089E+03   0.05516  -0.13791
     649.00   3.812245     0.1069E+03   0.04721  -0.11802
     651.00   3.813581     0.1124E+03   0.06888  -0.17220
     653.00   3.814913     0.1128E+03   0.07038  -0.17594
     655.00   3.816241     0.1108E+03   0.06268  -0.15670
     657.00   3.817565     0.1072E+03   0.04834  -0.12085
     659.00   3.818885     0.1104E+03   0.06121  -0.15302
     661.00   3.820201     0.1113E+03   0.06453  -0.16132
     663.00   3.821513     0.1091E+03   0.05598  -0.13996
     665.00   3.822822     0.1084E+03   0.05312  -0.13281
     667.00   3.824126     0.1043E+03   0.03656  -0.09141
     669.00   3.825426     0.1046E+03   0.03773  -0.09432
     671.00   3.826723     0.9864E+02   0.01216  -0.03041
     673.00   3.828015     0.1017E+03   0.02542  -0.06354
     675.00   3.829304     0.9948E+02   0.01586  -0.03964
     677.00   3.830589     0.1001E+03   0.01874  -0.04685
     679.00   3.831870     0.9853E+02   0.01169  -0.02922
     681.00   3.833147     0.1000E+03   0.01819  -0.04547
     683.00   3.834421     0.1022E+03   0.02763  -0.06907
     685.00   3.835690     0.9948E+02   0.01585  -0.03963
     687.00   3.836957     0.1020E+03   0.02690  -0.06725
     689.00   3.838219     0.1050E+03   0.03921  -0.09802
     691.00   3.839478     0.1063E+03   0.04477  -0.11193
     693.00   3.840733     0.1059E+03   0.04316  -0.10790
     695.00   3.841985     0.1073E+03   0.04873  -0.12183
     697.00   3.843233     0.1106E+03   0.06166  -0.15416
     699.00   3.844477     0.1112E+03   0.06432  -0.16080
     701.00   3.845718     0.1115E+03   0.06546  -0.16365
     703.00   3.846955     0.1134E+03   0.07263  -0.18157
     705.00   3.848189     0.1116E+03   0.06572  -0.16430
     707.00   3.849419     0.1047E+03   0.03814  -0.09534
     709.00   3.850646     0.9700E+02   0.00489  -0.01224
     711.00   3.851870     0.9233E+02  -0.01657   0.04143
     713.00   3.853090     0.8926E+02  -0.03126   0.07815
     715.00   3.854306     0.8870E+02  -0.03399   0.08498
     717.00   3.855519     0.9089E+02  -0.02338   0.05845
     719.00   3.856729     0.8904E+02  -0.03233   0.08082
     721.00   3.857935     0.9233E+02  -0.01656   0.04140
     723.00   3.859138     0.9637E+02   0.00204  -0.00510
     725.00   3.860338     0.9846E+02   0.01138  -0.02846
     727.00   3.861534     0.1006E+03   0.02060  -0.05150
     729.00   3.862728     0.1013E+03   0.02377  -0.05943
     731.00   3.863917     0.1075E+03   0.04963  -0.12408
     733.00   3.865104     0.1081E+03   0.05212  -0.13029
     735.00   3.866287     0.1126E+03   0.06977  -0.17442
     737.00   3.867467     0.1182E+03   0.09061  -0.22652
     739.00   3.868644     0.1159E+03   0.08234  -0.20585
     741.00   3.869818     0.1195E+03   0.09553  -0.23883
     743.00   3.870989     0.1236E+03   0.10998  -0.27494
     745.00   3.872156     0.1224E+03   0.10595  -0.26488
     747.00   3.873321     0.1289E+03   0.12829  -0.32073
     749.00   3.874482     0.1287E+03   0.12753  -0.31881
     751.00   3.875640     0.1301E+03   0.13232  -0.33080
     753.00   3.876795     0.1348E+03   0.14779  -0.36947
     755.00   3.877947     0.1366E+03   0.15357  -0.38392
     757.00   3.879096     0.1377E+03   0.15711  -0.39278
     759.00   3.880242     0.1304E+03   0.13322  -0.33304
     761.00   3.881385     0.1240E+03   0.11142  -0.27856
     763.00   3.882524     0.1164E+03   0.08417  -0.21044
     765.00   3.883662     0.1086E+03   0.05404  -0.13510
     767.00   3.884795     0.9997E+02   0.01796  -0.04489
     769.00   3.885926     0.1022E+03   0.02773  -0.06932
     771.00   3.887054     0.1004E+03   0.01989  -0.04972
     773.00   3.888180     0.1005E+03   0.02026  -0.05064
     775.00   3.889302     0.9992E+02   0.01777  -0.04442
     777.00   3.890421     0.1018E+03   0.02580  -0.06449
     779.00   3.891537     0.1030E+03   0.03083  -0.07708
     781.00   3.892651     0.1033E+03   0.03210  -0.08026
     783.00   3.893762     0.1032E+03   0.03197  -0.07994
     785.00   3.894870     0.1015E+03   0.02463  -0.06158
     787.00   3.895975     0.1044E+03   0.03689  -0.09222
     789.00   3.897077     0.1040E+03   0.03512  -0.08781
     791.00   3.898176     0.1008E+03   0.02158  -0.05396
     793.00   3.899273     0.1025E+03   0.02896  -0.07241
     795.00   3.900367     0.1023E+03   0.02804  -0.07010
     797.00   3.901458     0.1063E+03   0.04460  -0.11151
     799.00   3.902547     0.1068E+03   0.04671  -0.11677
     801.00   3.903632     0.1105E+03   0.06134  -0.15335
     803.00   3.904716     0.1121E+03   0.06782  -0.16954
     805.00   3.905796     0.1124E+03   0.06882  -0.17205
     807.00   3.906873     0.1176E+03   0.08855  -0.22137
     809.00   3.907948     0.1179E+03   0.08960  -0.22401
     811.00   3.909021     0.1205E+03   0.09919  -0.24798
     813.00   3.910090     0.1275E+03   0.12350  -0.30875
     815.00   3.911158     0.1317E+03   0.13780  -0.34451
     817.00   3.912222     0.1343E+03   0.14607  -0.36517
     819.00   3.913284     0.1321E+03   0.13909  -0.34774
     821.00   3.914343     0.1226E+03   0.10676  -0.26689
     823.00   3.915400     0.1233E+03   0.10899  -0.27247
     825.00   3.916454     0.1225E+03   0.10606  -0.26516
     827.00   3.917506     0.1230E+03   0.10806  -0.27014
     829.00   3.918555     0.1210E+03   0.10087  -0.25218
     831.00   3.919601     0.1162E+03   0.08324  -0.20809
     833.00   3.920645     0.1148E+03   0.07811  -0.19527
     835.00   3.921686     0.1144E+03   0.07667  -0.19167
     837.00   3.922725     0.1156E+03   0.08098  -0.20246
     839.00   3.923762     0.1118E+03   0.06647  -0.16616
     841.00   3.924796     0.1158E+03   0.08164  -0.20410
     843.00   3.925828     0.1103E+03   0.06068  -0.15170
     845.00   3.926857     0.1018E+03   0.02601  -0.06503
     847.00   3.927883     0.1017E+03   0.02555  -0.06388
     849.00   3.928908     0.1034E+03   0.03266  -0.08165
     851.00   3.929929     0.9871E+02   0.01246  -0.03115
     853.00   3.930949     0.1025E+03   0.02886  -0.07214
     855.00   3.931966     0.9666E+02   0.00335  -0.00837
     857.00   3.932981     0.1086E+03   0.05406  -0.13516
     859.00   3.933993     0.1082E+03   0.05237  -0.13092
     861.00   3.935003     0.1114E+03   0.06489  -0.16222
     863.00   3.936011     0.1145E+03   0.07699  -0.19247
     865.00   3.937016     0.1152E+03   0.07969  -0.19923
     867.00   3.938019     0.1051E+03   0.03982  -0.09956
     869.00   3.939020     0.1152E+03   0.07970  -0.19925
     871.00   3.940018     0.1207E+03   0.09966  -0.24914
     873.00   3.941014     0.1227E+03   0.10684  -0.26710
     875.00   3.942008     0.1226E+03   0.10660  -0.26650
     877.00   3.943000     0.1244E+03   0.11283  -0.28208
     879.00   3.943989     0.1303E+03   0.13293  -0.33233
     881.00   3.944976     0.1293E+03   0.12956  -0.32389
     883.00   3.945961     0.1309E+03   0.13499  -0.33747
     885.00   3.946943     0.1266E+03   0.12056  -0.30139
     887.00   3.947924     0.1186E+03   0.09224  -0.23060
     889.00   3.948902     0.1179E+03   0.08958  -0.22395
     891.00   3.949878     0.1201E+03   0.09765  -0.24412
     893.00   3.950851     0.1187E+03   0.09262  -0.23155
     895.00   3.951823     0.1200E+03   0.09732  -0.24329
     897.00   3.952792     0.1206E+03   0.09936  -0.24840
     899.00   3.953760     0.1211E+03   0.10136  -0.25339
     901.00   3.954725     0.1197E+03   0.09630  -0.24076
     903.00   3.955688     0.1263E+03   0.11948  -0.29870
     905.00   3.956649     0.1322E+03   0.13942  -0.34854
     907.00   3.957607     0.1355E+03   0.15015  -0.37538
     909.00   3.958564     0.1362E+03   0.15232  -0.38081
     911.00   3.959518     0.1390E+03   0.16099  -0.40248
     913.00   3.960471     0.1413E+03   0.16813  -0.42031
     915.00   3.961421     0.1404E+03   0.16549  -0.41372
     917.00   3.962369     0.1409E+03   0.16717  -0.41792
     919.00   3.963315     0.1428E+03   0.17298  -0.43245
     921.00   3.964260     0.1333E+03   0.14297  -0.35743
     923.00   3.965202     0.1300E+03   0.13193  -0.32982
     925.00   3.966142     0.1271E+03   0.12220  -0.30549
     927.00   3.967080     0.1304E+03   0.13335  -0.33337
     929.00   3.968016     0.1241E+03   0.11179  -0.27947
     931.00   3.968950     0.1247E+03   0.11388  -0.28469
     933.00   3.969882     0.1271E+03   0.12209  -0.30523
     935.00   3.970812     0.1271E+03   0.12228  -0.30569
     937.00   3.971740     0.1233E+03   0.10901  -0.27252
     939.00   3.972666     0.1280E+03   0.12532  -0.31331
     941.00   3.973590     0.1278E+03   0.12473  -0.31182
     943.00   3.974512     0.1306E+03   0.13396  -0.33490
     945.00   3.975432     0.1303E+03   0.13291  -0.33228
     947.00   3.976350     0.1348E+03   0.14790  -0.36974
     949.00   3.977266     0.1361E+03   0.15189  -0.37972
     951.00   3.978180     0.1293E+03   0.12963  -0.32406
     953.00   3.979093     0.1334E+03   0.14311  -0.35778
     955.00   3.980003     0.1330E+03   0.14201  -0.35503
     957.00   3.980912     0.1355E+03   0.15002  -0.37505
     959.00   3.981819     0.1371E+03   0.15505  -0.38762
     961.00   3.982723     0.1359E+03   0.15140  -0.37850
     963.00   3.983626     0.1387E+03   0.16007  -0.40018
     965.00   3.984527     0.1371E+03   0.15517  -0.38791
     967.00   3.985426     0.1380E+03   0.15808  -0.39520
     969.00   3.986324     0.1395E+03   0.16262  -0.40655
     971.00   3.987219     0.1358E+03   0.15100  -0.37750
     973.00   3.988113     0.1335E+03   0.14345  -0.35863
     975.00   3.989005     0.1336E+03   0.14394  -0.35984
     977.00   3.989895     0.1348E+03   0.14781  -0.36952
     979.00   3.990783     0.1340E+03   0.14506  -0.36266
     981.00   3.991669     0.1372E+03   0.15536  -0.38839
     983.00   3.992553     0.1357E+03   0.15066  -0.37665
     985.00   3.993436     0.1366E+03   0.15352  -0.38380
     987.00   3.994317     0.1360E+03   0.15160  -0.37900
     989.00   3.995196     0.1360E+03   0.15162  -0.37906
     991.00   3.996074     0.1362E+03   0.15233  -0.38082
     993.00   3.996949     0.1377E+03   0.15689  -0.39223
     995.00   3.997823     0.1389E+03   0.16095  -0.40237
     997.00   3.998695     0.1392E+03   0.16185  -0.40463
     999.00   3.999566     0.1390E+03   0.16125  -0.40312
    1003.00   4.001301     0.1412E+03   0.16801  -0.42002
    1008.00   4.003461     0.1416E+03   0.16902  -0.42255
    1013.00   4.005610     0.1467E+03   0.18467  -0.46168
    1018.00   4.007748     0.1452E+03   0.17996  -0.44991
    1023.00   4.009875     0.1477E+03   0.18750  -0.46876
    1028.00   4.011993     0.1490E+03   0.19143  -0.47857
    1033.00   4.014100     0.1495E+03   0.19270  -0.48176
    1038.00   4.016197     0.1492E+03   0.19174  -0.47935
    1043.00   4.018284     0.1510E+03   0.19694  -0.49236
    1048.00   4.020361     0.1507E+03   0.19628  -0.49071
    1053.00   4.022429     0.1455E+03   0.18092  -0.45229
    1058.00   4.024486     0.1405E+03   0.16575  -0.41437
    1063.00   4.026533     0.1392E+03   0.16185  -0.40461
    1068.00   4.028571     0.1415E+03   0.16900  -0.42250
    1073.00   4.030600     0.1443E+03   0.17751  -0.44378
    1078.00   4.032619     0.1443E+03   0.17736  -0.44341
    1083.00   4.034628     0.1429E+03   0.17316  -0.43290
    1088.00   4.036629     0.1420E+03   0.17035  -0.42588
    1093.00   4.038620     0.1415E+03   0.16875  -0.42188
    1098.00   4.040603     0.1396E+03   0.16291  -0.40726
    1103.00   4.042576     0.1390E+03   0.16115  -0.40287
    1108.00   4.044539     0.1319E+03   0.13836  -0.34590
    1113.00   4.046495     0.1337E+03   0.14438  -0.36094
    1118.00   4.048442     0.1338E+03   0.14448  -0.36120
    1123.00   4.050380     0.1349E+03   0.14808  -0.37020
    1128.00   4.052309     0.1359E+03   0.15122  -0.37804
    1133.00   4.054230     0.1363E+03   0.15257  -0.38142
    1138.00   4.056142     0.1366E+03   0.15364  -0.38409
    1143.00   4.058046     0.1365E+03   0.15320  -0.38301
    1148.00   4.059942     0.1379E+03   0.15759  -0.39398
    1153.00   4.061830     0.1385E+03   0.15941  -0.39853
    1158.00   4.063708     0.1380E+03   0.15797  -0.39493
    1163.00   4.065579     0.1372E+03   0.15533  -0.38834
    1168.00   4.067443     0.1374E+03   0.15608  -0.39019
    1173.00   4.069298     0.1368E+03   0.15411  -0.38527
    1178.00   4.071145     0.1337E+03   0.14421  -0.36053
    1183.00   4.072985     0.1312E+03   0.13591  -0.33978
    1188.00   4.074817     0.1298E+03   0.13131  -0.32826
    1193.00   4.076640     0.1317E+03   0.13774  -0.34435
    1198.00   4.078457     0.1296E+03   0.13075  -0.32686
    1203.00   4.080266     0.1325E+03   0.14041  -0.35102
    1208.00   4.082067     0.1326E+03   0.14060  -0.35150
    1213.00   4.083861     0.1332E+03   0.14272  -0.35679
    1218.00   4.085648     0.1337E+03   0.14410  -0.36024
    1223.00   4.087426     0.1334E+03   0.14323  -0.35808
    1228.00   4.089198     0.1329E+03   0.14176  -0.35441
    1233.00   4.090963     0.1324E+03   0.14003  -0.35008
    1238.00   4.092721     0.1323E+03   0.13974  -0.34934
    1243.00   4.094471     0.1284E+03   0.12682  -0.31706
    1248.00   4.096214     0.1293E+03   0.12957  -0.32392
    1253.00   4.097951     0.1290E+03   0.12872  -0.32180
    1258.00   4.099681     0.1274E+03   0.12322  -0.30806
    1263.00   4.101403     0.1278E+03   0.12448  -0.31121
    1268.00   4.103119     0.1276E+03   0.12384  -0.30961
    1273.00   4.104828     0.1272E+03   0.12270  -0.30675
    1278.00   4.106531     0.1278E+03   0.12479  -0.31198
    1283.00   4.108227     0.1259E+03   0.11809  -0.29522
    1288.00   4.109916     0.1269E+03   0.12140  -0.30349
    1293.00   4.111598     0.1261E+03   0.11895  -0.29737
    1298.00   4.113275     0.1272E+03   0.12272  -0.30679
    1303.00   4.114944     0.1263E+03   0.11938  -0.29846
    1308.00   4.116608     0.1262E+03   0.11913  -0.29782
    1313.00   4.118265     0.1240E+03   0.11141  -0.27853
    1318.00   4.119915     0.1234E+03   0.10925  -0.27314
    1323.00   4.121560     0.1229E+03   0.10770  -0.26925
    1328.00   4.123198     0.1212E+03   0.10148  -0.25370
    1333.00   4.124830     0.1209E+03   0.10052  -0.25129
    1338.00   4.126456     0.1197E+03   0.09603  -0.24008
    1343.00   4.128076     0.1193E+03   0.09485  -0.23713
    1348.00   4.129690     0.1182E+03   0.09055  -0.22638
    1353.00   4.131298     0.1172E+03   0.08721  -0.21803
    1358.00   4.132900     0.1156E+03   0.08095  -0.20238
    1363.00   4.134496     0.1154E+03   0.08036  -0.20090
    1368.00   4.136086     0.1163E+03   0.08384  -0.20959
    1373.00   4.137671     0.1172E+03   0.08691  -0.21728
    1378.00   4.139249     0.1174E+03   0.08787  -0.21967
    1383.00   4.140822     0.1175E+03   0.08803  -0.22008
    1388.00   4.142389     0.1164E+03   0.08407  -0.21017
    1393.00   4.143951     0.1002E+03   0.01893  -0.04732
    1398.00   4.145507     0.1015E+03   0.02458  -0.06144
    1403.00   4.147058     0.1013E+03   0.02380  -0.05950
    1408.00   4.148602     0.1023E+03   0.02779  -0.06947
    1413.00   4.150142     0.1018E+03   0.02606  -0.06514
    1418.00   4.151676     0.1028E+03   0.03024  -0.07561
    1423.00   4.153205     0.1027E+03   0.02957  -0.07392
    1428.00   4.154728     0.1022E+03   0.02750  -0.06876
    1433.00   4.156246     0.1043E+03   0.03620  -0.09049
    1438.00   4.157759     0.1051E+03   0.03968  -0.09919
    1443.00   4.159266     0.1042E+03   0.03594  -0.08985
    1448.00   4.160769     0.1060E+03   0.04324  -0.10809
    1453.00   4.162266     0.1058E+03   0.04269  -0.10673
    1457.00   4.163460     0.1066E+03   0.04571  -0.11427
    1462.00   4.164948     0.9883E+02   0.01299  -0.03247
    1468.00   4.166726     0.1002E+03   0.01877  -0.04691
    1473.00   4.168202     0.1003E+03   0.01954  -0.04886
    1478.00   4.169674     0.1017E+03   0.02538  -0.06345
    1483.00   4.171141     0.1028E+03   0.03022  -0.07554
    1488.00   4.172603     0.1030E+03   0.03083  -0.07707
    1493.00   4.174060     0.1056E+03   0.04170  -0.10425
    1498.00   4.175512     0.1058E+03   0.04271  -0.10679
    1503.00   4.176959     0.1054E+03   0.04086  -0.10216
    1508.00   4.178401     0.1065E+03   0.04548  -0.11369
    1513.00   4.179839     0.1085E+03   0.05342  -0.13354
    1518.00   4.181272     0.1094E+03   0.05717  -0.14293
    1523.00   4.182700     0.1099E+03   0.05928  -0.14820
    1528.00   4.184123     0.1110E+03   0.06347  -0.15867
    1533.00   4.185542     0.1113E+03   0.06450  -0.16126
    1538.00   4.186956     0.1071E+03   0.04795  -0.11987
    1543.00   4.188366     0.1090E+03   0.05540  -0.13850
    1548.00   4.189771     0.1098E+03   0.05883  -0.14707
    1553.00   4.191172     0.1100E+03   0.05945  -0.14862
    1558.00   4.192567     0.1042E+03   0.03583  -0.08957
    1563.00   4.193959     0.1054E+03   0.04096  -0.10241
    1568.00   4.195346     0.1070E+03   0.04752  -0.11881
    1573.00   4.196729     0.1101E+03   0.06003  -0.15008
    1578.00   4.198107     0.9553E+02  -0.00175   0.00438
    1583.00   4.199481     0.1006E+03   0.02084  -0.05211
    1588.00   4.200850     0.1035E+03   0.03290  -0.08226
    1593.00   4.202216     0.1074E+03   0.04910  -0.12275
    1598.00   4.203577     0.1105E+03   0.06134  -0.15335
    1605.00   4.205475     0.1016E+03   0.02511  -0.06277
    1615.00   4.208173     0.1076E+03   0.04987  -0.12468
    1625.00   4.210854     0.1005E+03   0.02017  -0.05043
    1635.00   4.213518     0.1076E+03   0.04973  -0.12433
    1645.00   4.216166     0.1014E+03   0.02428  -0.06070
    1655.00   4.218798     0.1060E+03   0.04324  -0.10810
    1665.00   4.221415     0.1015E+03   0.02449  -0.06123
    1675.00   4.224015     0.1053E+03   0.04037  -0.10094
    1685.00   4.226600     0.1073E+03   0.04878  -0.12196
    1695.00   4.229170     0.1039E+03   0.03474  -0.08684
    1705.00   4.231725     0.1039E+03   0.03481  -0.08704
    1715.00   4.234264     0.1012E+03   0.02332  -0.05829
    1725.00   4.236789     0.1001E+03   0.01838  -0.04594
    1735.00   4.239300     0.9645E+02   0.00240  -0.00599
    1745.00   4.241796     0.9520E+02  -0.00327   0.00818
    1755.00   4.244277     0.9394E+02  -0.00903   0.02257
    1765.00   4.246745     0.9088E+02  -0.02345   0.05863
    1775.00   4.249198     0.8815E+02  -0.03669   0.09173
    1785.00   4.251638     0.8623E+02  -0.04625   0.11562
    1795.00   4.254065     0.8331E+02  -0.06123   0.15307
    1805.00   4.256477     0.8091E+02  -0.07389   0.18474
    1815.00   4.258877     0.7947E+02  -0.08168   0.20420
    1825.00   4.261263     0.7821E+02  -0.08862   0.22156
    1835.00   4.263636     0.7698E+02  -0.09551   0.23878
    1845.00   4.265996     0.7535E+02  -0.10481   0.26204
    1855.00   4.268344     0.7407E+02  -0.11227   0.28069
    1865.00   4.270679     0.7191E+02  -0.12510   0.31274
    1875.00   4.273001     0.7056E+02  -0.13332   0.33330
    1885.00   4.275311     0.6989E+02  -0.13747   0.34368
    1895.00   4.277609     0.6809E+02  -0.14884   0.37209
    1905.00   4.279895     0.6818E+02  -0.14822   0.37055
    1915.00   4.282169     0.6706E+02  -0.15543   0.38858
    1925.00   4.284431     0.6624E+02  -0.16075   0.40188
    1935.00   4.286681     0.6482E+02  -0.17022   0.42555
    1945.00   4.288919     0.6346E+02  -0.17938   0.44845
    1955.00   4.291147     0.6253E+02  -0.18580   0.46451
    1965.00   4.293363     0.6108E+02  -0.19597   0.48991
    1975.00   4.295567     0.5923E+02  -0.20932   0.52331
    1985.00   4.297760     0.5834E+02  -0.21595   0.53987
    1995.00   4.299943     0.5768E+02  -0.22086   0.55214
    2005.00   4.302114     0.5725E+02  -0.22415   0.56038
    2015.00   4.304275     0.5649E+02  -0.22992   0.57480
    2025.00   4.306425     0.5546E+02  -0.23790   0.59475
    2035.00   4.308564     0.5504E+02  -0.24119   0.60297
    2045.00   4.310693     0.5492E+02  -0.24215   0.60537
    2055.00   4.312812     0.5434E+02  -0.24675   0.61687
    2065.00   4.314920     0.5381E+02  -0.25107   0.62769
    2075.00   4.317018     0.5346E+02  -0.25383   0.63458
    2085.00   4.319106     0.5299E+02  -0.25772   0.64431
    2095.00   4.321184     0.5241E+02  -0.26250   0.65624
    2105.00   4.323252     0.5223E+02  -0.26400   0.65999
    2115.00   4.325311     0.5160E+02  -0.26924   0.67311
    2125.00   4.327359     0.5107E+02  -0.27376   0.68441
    2135.00   4.329398     0.5074E+02  -0.27659   0.69147
    2145.00   4.331428     0.5020E+02  -0.28121   0.70304
    2155.00   4.333447     0.4960E+02  -0.28644   0.71610
    2165.00   4.335458     0.4891E+02  -0.29248   0.73120
    2175.00   4.337460     0.4825E+02  -0.29840   0.74599
    2185.00   4.339452     0.4774E+02  -0.30303   0.75756
    2195.00   4.341434     0.4720E+02  -0.30796   0.76989
    2205.00   4.343409     0.4627E+02  -0.31664   0.79160
    2215.00   4.345374     0.4600E+02  -0.31909   0.79773
    2225.00   4.347330     0.4510E+02  -0.32775   0.81937
    2235.00   4.349277     0.4453E+02  -0.33326   0.83316
    2245.00   4.351216     0.4392E+02  -0.33925   0.84814
    2255.00   4.353147     0.4339E+02  -0.34453   0.86131
    2265.00   4.355068     0.4257E+02  -0.35278   0.88196
    2275.00   4.356981     0.4221E+02  -0.35645   0.89112
    2285.00   4.358886     0.4143E+02  -0.36459   0.91147
    2295.00   4.360783     0.3221E+02  -0.47391   1.18477
    2305.00   4.362671     0.3638E+02  -0.42102   1.05256
    2315.00   4.364551     0.3635E+02  -0.42139   1.05347
    2325.00   4.366423     0.2998E+02  -0.50500   1.26250
    2335.00   4.368287     0.3324E+02  -0.46020   1.15050
    2345.00   4.370143     0.2961E+02  -0.51042   1.27604
    2355.00   4.371991     0.2776E+02  -0.53849   1.34621
    2365.00   4.373831     0.3034E+02  -0.49987   1.24968
    2375.00   4.375664     0.2775E+02  -0.53867   1.34667
    2385.00   4.377488     0.2599E+02  -0.56707   1.41767
    2395.00   4.379306     0.2786E+02  -0.53689   1.34223
    2405.00   4.381115     0.2619E+02  -0.56369   1.40924
    2415.00   4.382917     0.2403E+02  -0.60123   1.50306
    2425.00   4.384712     0.2545E+02  -0.57622   1.44055
    2435.00   4.386499     0.2366E+02  -0.60792   1.51979
    2445.00   4.388279     0.2373E+02  -0.60656   1.51639
    2455.00   4.390052     0.2241E+02  -0.63146   1.57865
    2465.00   4.391817     0.2191E+02  -0.64129   1.60321
    2475.00   4.393575     0.2107E+02  -0.65834   1.64584
    2485.00   4.395327     0.1768E+02  -0.73438   1.83595
    2495.00   4.397071     0.1627E+02  -0.77057   1.92644
    2505.00   4.398808     0.1647E+02  -0.76508   1.91270
    2515.00   4.400538     0.1574E+02  -0.78503   1.96257
    2525.00   4.402262     0.1607E+02  -0.77595   1.93988
    2535.00   4.403978     0.1608E+02  -0.77572   1.93929
    2545.00   4.405688     0.1593E+02  -0.77980   1.94950
    2555.00   4.407391     0.1599E+02  -0.77806   1.94516
    2565.00   4.409087     0.1624E+02  -0.77132   1.92830
    2575.00   4.410777     0.1651E+02  -0.76414   1.91035
    2585.00   4.412460     0.1632E+02  -0.76913   1.92283
    2595.00   4.414137     0.1637E+02  -0.76772   1.91930
    2605.00   4.415808     0.1639E+02  -0.76727   1.91817
    2615.00   4.417472     0.1617E+02  -0.77331   1.93327
    2625.00   4.419129     0.1596E+02  -0.77885   1.94713
    2635.00   4.420781     0.1594E+02  -0.77949   1.94872
    2645.00   4.422426     0.1580E+02  -0.78334   1.95834
    2655.00   4.424065     0.1563E+02  -0.78797   1.96993
    2665.00   4.425697     0.1540E+02  -0.79426   1.98564
    2675.00   4.427324     0.1553E+02  -0.79076   1.97690
    2685.00   4.428945     0.1536E+02  -0.79538   1.98846
    2695.00   4.430559     0.1510E+02  -0.80287   2.00716
    2705.00   4.432167     0.1508E+02  -0.80339   2.00848
    2715.00   4.433770     0.1495E+02  -0.80719   2.01797
    2725.00   4.435367     0.1486E+02  -0.80991   2.02478
    2735.00   4.436957     0.1463E+02  -0.81672   2.04181
    2745.00   4.438542     0.1459E+02  -0.81792   2.04479
    2755.00   4.440122     0.1450E+02  -0.82049   2.05123
    2765.00   4.441695     0.1432E+02  -0.82593   2.06482
    2775.00   4.443263     0.1413E+02  -0.83177   2.07942
    2785.00   4.444825     0.1407E+02  -0.83355   2.08387
    2795.00   4.446382     0.1400E+02  -0.83574   2.08934
    2805.00   4.447933     0.1386E+02  -0.84011   2.10028
    2815.00   4.449478     0.1369E+02  -0.84535   2.11339
    2825.00   4.451018     0.1360E+02  -0.84820   2.12050
    2835.00   4.452553     0.1353E+02  -0.85048   2.12621
    2845.00   4.454082     0.1339E+02  -0.85521   2.13802
    2855.00   4.455606     0.1327E+02  -0.85918   2.14794
    2865.00   4.457125     0.1316E+02  -0.86270   2.15675
    2875.00   4.458638     0.1305E+02  -0.86615   2.16538
    2885.00   4.460146     0.1294E+02  -0.87012   2.17529
    2895.00   4.461648     0.1282E+02  -0.87385   2.18463
    2905.00   4.463146     0.1270E+02  -0.87800   2.19501
    2915.00   4.464639     0.1260E+02  -0.88141   2.20354
    2925.00   4.466126     0.1242E+02  -0.88787   2.21968
    2935.00   4.467608     0.1238E+02  -0.88928   2.22319
    2945.00   4.469085     0.1225E+02  -0.89375   2.23437
    2955.00   4.470557     0.1214E+02  -0.89753   2.24383
    2965.00   4.472025     0.1206E+02  -0.90058   2.25145
    2975.00   4.473487     0.1195E+02  -0.90439   2.26099
    2985.00   4.474944     0.1182E+02  -0.90912   2.27279
    2995.00   4.476397     0.1171E+02  -0.91332   2.28331
    3005.00   4.477844     0.1164E+02  -0.91602   2.29006
    3015.00   4.479287     0.1161E+02  -0.91689   2.29222
    3025.00   4.480725     0.1155E+02  -0.91945   2.29861
    3035.00   4.482159     0.1149E+02  -0.92154   2.30384
    3045.00   4.483587     0.1147E+02  -0.92224   2.30559
    3055.00   4.485011     0.1142E+02  -0.92439   2.31096
    3065.00   4.486430     0.1137E+02  -0.92620   2.31551
    3075.00   4.487845     0.1135E+02  -0.92698   2.31745
    3085.00   4.489255     0.1129E+02  -0.92931   2.32327
    3095.00   4.490661     0.1128E+02  -0.92962   2.32404
    3105.00   4.492062     0.1126E+02  -0.93038   2.32596
    3115.00   4.493458     0.1116E+02  -0.93416   2.33541
    3125.00   4.494850     0.1115E+02  -0.93474   2.33686
    3135.00   4.496238     0.1110E+02  -0.93665   2.34164
    3145.00   4.497621     0.1104E+02  -0.93885   2.34713
    3155.00   4.499000     0.1098E+02  -0.94141   2.35353
    3165.00   4.500374     0.1091E+02  -0.94418   2.36044
    3175.00   4.501744     0.1088E+02  -0.94534   2.36335
    3185.00   4.503109     0.1084E+02  -0.94679   2.36698
    3195.00   4.504471     0.1082E+02  -0.94773   2.36932
    3210.00   4.506505     0.1075E+02  -0.95066   2.37664
    3230.00   4.509202     0.1064E+02  -0.95491   2.38729
    3250.00   4.511883     0.1055E+02  -0.95844   2.39611
    3270.00   4.514548     0.1043E+02  -0.96344   2.40860
    3290.00   4.517196     0.1029E+02  -0.96958   2.42394
    3310.00   4.519828     0.1020E+02  -0.97342   2.43354
    3330.00   4.522444     0.1006E+02  -0.97936   2.44840
    3350.00   4.525045     0.9939E+01  -0.98454   2.46134
    3370.00   4.527630     0.9798E+01  -0.99077   2.47693
    3390.00   4.530200     0.9638E+01  -0.99791   2.49477
    3410.00   4.532754     0.9478E+01  -1.00519   2.51297
    3430.00   4.535294     0.9345E+01  -1.01132   2.52830
    3450.00   4.537819     0.9189E+01  -1.01862   2.54656
    3470.00   4.540329     0.9031E+01  -1.02618   2.56545
    3490.00   4.542826     0.8886E+01  -1.03320   2.58300
    3510.00   4.545307     0.8740E+01  -1.04038   2.60095
    3530.00   4.547775     0.8581E+01  -1.04835   2.62087
    3550.00   4.550228     0.8441E+01  -1.05549   2.63872
    3570.00   4.552669     0.8291E+01  -1.06329   2.65823
    3590.00   4.555095     0.8151E+01  -1.07069   2.67673
    3610.00   4.557508     0.8017E+01  -1.07791   2.69478
    3630.00   4.559907     0.7870E+01  -1.08592   2.71479
    3650.00   4.562293     0.7721E+01  -1.09424   2.73561
    3670.00   4.564666     0.7583E+01  -1.10207   2.75518
    3690.00   4.567026     0.7432E+01  -1.11077   2.77693
    3710.00   4.569374     0.7293E+01  -1.11899   2.79747
    3730.00   4.571709     0.7178E+01  -1.12588   2.81470
    3750.00   4.574031     0.7030E+01  -1.13494   2.83736
    3770.00   4.576342     0.6922E+01  -1.14164   2.85409
    3790.00   4.578639     0.6788E+01  -1.15017   2.87542
    3810.00   4.580925     0.6666E+01  -1.15803   2.89508
    3830.00   4.583199     0.6553E+01  -1.16548   2.91371
    3850.00   4.585461     0.6434E+01  -1.17340   2.93349
    3870.00   4.587711     0.6301E+01  -1.18248   2.95619
    3890.00   4.589950     0.6190E+01  -1.19023   2.97557
    3910.00   4.592176     0.6079E+01  -1.19805   2.99513
    3930.00   4.594393     0.5966E+01  -1.20621   3.01552
    3950.00   4.596597     0.5841E+01  -1.21544   3.03859
    3970.00   4.598790     0.5737E+01  -1.22323   3.05807
    3990.00   4.600973     0.5614E+01  -1.23260   3.08149
    4010.00   4.603145     0.5522E+01  -1.23982   3.09956
    4030.00   4.605305     0.5427E+01  -1.24738   3.11844
    4050.00   4.607455     0.5319E+01  -1.25605   3.14012
    4070.00   4.609594     0.5224E+01  -1.26392   3.15980
    4090.00   4.611723     0.5128E+01  -1.27198   3.17994
    4110.00   4.613842     0.5042E+01  -1.27927   3.19817
    4130.00   4.615950     0.4961E+01  -1.28631   3.21578
    4150.00   4.618048     0.4875E+01  -1.29393   3.23482
    4170.00   4.620136     0.4794E+01  -1.30117   3.25293
    4190.00   4.622214     0.4711E+01  -1.30881   3.27202
    4210.00   4.624282     0.4628E+01  -1.31646   3.29116
    4230.00   4.626340     0.4566E+01  -1.32241   3.30602
    4250.00   4.628389     0.4484E+01  -1.33022   3.32556
    4270.00   4.630428     0.4416E+01  -1.33685   3.34212
    4290.00   4.632457     0.4260E+01  -1.35247   3.38117
    4310.00   4.634478     0.4094E+01  -1.36970   3.42426
    4330.00   4.636488     0.4062E+01  -1.37318   3.43295
    4350.00   4.638489     0.3932E+01  -1.38726   3.46815
    4370.00   4.640481     0.3842E+01  -1.39729   3.49322
    4390.00   4.642465     0.3771E+01  -1.40550   3.51374
    4410.00   4.644439     0.3665E+01  -1.41782   3.54454
    4430.00   4.646404     0.3608E+01  -1.42464   3.56161
    4450.00   4.648360     0.3548E+01  -1.43193   3.57983
    4470.00   4.650308     0.3458E+01  -1.44308   3.60770
    4490.00   4.652246     0.3429E+01  -1.44669   3.61672
    4510.00   4.654177     0.3359E+01  -1.45568   3.63920
    4530.00   4.656098     0.3292E+01  -1.46448   3.66121
    4550.00   4.658011     0.3259E+01  -1.46882   3.67204
    4570.00   4.659916     0.3215E+01  -1.47467   3.68668
    4590.00   4.661813     0.3141E+01  -1.48486   3.71214
    4610.00   4.663701     0.3121E+01  -1.48765   3.71913
    4630.00   4.665581     0.3067E+01  -1.49520   3.73801
    4650.00   4.667453     0.3030E+01  -1.50040   3.75101
    4670.00   4.669317     0.3000E+01  -1.50472   3.76181
    4690.00   4.671173     0.2949E+01  -1.51226   3.78065
    4710.00   4.673021     0.2903E+01  -1.51911   3.79777
    4730.00   4.674861     0.2885E+01  -1.52171   3.80428
    4750.00   4.676694     0.2831E+01  -1.52997   3.82493
    4770.00   4.678518     0.2793E+01  -1.53586   3.83964
    4790.00   4.680336     0.2762E+01  -1.54072   3.85179
    4810.00   4.682145     0.2706E+01  -1.54951   3.87376
    4830.00   4.683947     0.2693E+01  -1.55164   3.87910
    4850.00   4.685741     0.2649E+01  -1.55875   3.89688
    4870.00   4.687529     0.2605E+01  -1.56612   3.91530
    4890.00   4.689309     0.2569E+01  -1.57220   3.93050
    4910.00   4.691082     0.2536E+01  -1.57769   3.94424
    4930.00   4.692847     0.2499E+01  -1.58419   3.96048
    4950.00   4.694605     0.2460E+01  -1.59098   3.97745
    4970.00   4.696356     0.2436E+01  -1.59528   3.98820
    4990.00   4.698101     0.2402E+01  -1.60132   4.00329
    5010.00   4.699838     0.2370E+01  -1.60717   4.01793
    5030.00   4.701568     0.2338E+01  -1.61301   4.03253
    5050.00   4.703291     0.2298E+01  -1.62058   4.05145
    5070.00   4.705008     0.2274E+01  -1.62507   4.06268
    5090.00   4.706717     0.2244E+01  -1.63091   4.07727
    5110.00   4.708421     0.2209E+01  -1.63768   4.09420
    5130.00   4.710117     0.2189E+01  -1.64175   4.10437
    5150.00   4.711807     0.2154E+01  -1.64874   4.12185
    5170.00   4.713490     0.2135E+01  -1.65248   4.13121
    5190.00   4.715167     0.2102E+01  -1.65936   4.14840
    5210.00   4.716838     0.2077E+01  -1.66439   4.16096
    5230.00   4.718502     0.2045E+01  -1.67122   4.17805
    5250.00   4.720160     0.2024E+01  -1.67567   4.18917
    5270.00   4.721810     0.2006E+01  -1.67949   4.19873
    5290.00   4.723455     0.1970E+01  -1.68739   4.21847
    5310.00   4.725095     0.1945E+01  -1.69302   4.23254
    5330.00   4.726727     0.1924E+01  -1.69759   4.24398
    5350.00   4.728354     0.1901E+01  -1.70300   4.25750
    5370.00   4.729974     0.1878E+01  -1.70812   4.27031
    5390.00   4.731589     0.1856E+01  -1.71335   4.28338
    5410.00   4.733197     0.1833E+01  -1.71866   4.29666
    5430.00   4.734800     0.1804E+01  -1.72557   4.31392
    5450.00   4.736397     0.1790E+01  -1.72915   4.32288
    5470.00   4.737988     0.1763E+01  -1.73558   4.33895
    5490.00   4.739573     0.1743E+01  -1.74049   4.35123
    5510.00   4.741152     0.1721E+01  -1.74611   4.36527
    5530.00   4.742725     0.1713E+01  -1.74816   4.37041
    5550.00   4.744293     0.1679E+01  -1.75696   4.39241
    5570.00   4.745855     0.1667E+01  -1.75996   4.39990
    5590.00   4.747412     0.1643E+01  -1.76636   4.41591
    5610.00   4.748963     0.1627E+01  -1.77059   4.42647
    5630.00   4.750508     0.1602E+01  -1.77733   4.44333
    5650.00   4.752048     0.1588E+01  -1.78100   4.45251
    5670.00   4.753583     0.1569E+01  -1.78623   4.46557
    5690.00   4.755112     0.1545E+01  -1.79286   4.48216
    5710.00   4.756636     0.1533E+01  -1.79622   4.49056
    5730.00   4.758155     0.1514E+01  -1.80166   4.50416
    5750.00   4.759668     0.1496E+01  -1.80684   4.51710
    5770.00   4.761176     0.1477E+01  -1.81238   4.53094
    5790.00   4.762679     0.1464E+01  -1.81643   4.54107
    5810.00   4.764176     0.1443E+01  -1.82254   4.55635
    5830.00   4.765669     0.1427E+01  -1.82740   4.56850
    5850.00   4.767156     0.1411E+01  -1.83239   4.58098
    5870.00   4.768638     0.1391E+01  -1.83844   4.59611
    5890.00   4.770115     0.1376E+01  -1.84327   4.60818
    5910.00   4.771587     0.1361E+01  -1.84806   4.62014
    5930.00   4.773055     0.1346E+01  -1.85293   4.63232
    5950.00   4.774517     0.1328E+01  -1.85860   4.64650
    5970.00   4.775974     0.1315E+01  -1.86292   4.65731
    5990.00   4.777427     0.1300E+01  -1.86801   4.67002
    6010.00   4.778874     0.1285E+01  -1.87309   4.68273
    6030.00   4.780317     0.1270E+01  -1.87822   4.69554
    6050.00   4.781755     0.1253E+01  -1.88392   4.70980
    6070.00   4.783189     0.1239E+01  -1.88884   4.72211
    6090.00   4.784617     0.1225E+01  -1.89393   4.73483
    6110.00   4.786041     0.1210E+01  -1.89926   4.74814
    6130.00   4.787460     0.1197E+01  -1.90376   4.75941
    6150.00   4.788875     0.1184E+01  -1.90856   4.77140
    6170.00   4.790285     0.1171E+01  -1.91321   4.78302
    6190.00   4.791691     0.1158E+01  -1.91830   4.79575
    6210.00   4.793092     0.1145E+01  -1.92301   4.80753
    6230.00   4.794488     0.1131E+01  -1.92844   4.82111
    6250.00   4.795880     0.1117E+01  -1.93384   4.83459
    6270.00   4.797267     0.1104E+01  -1.93881   4.84703
    6290.00   4.798651     0.1093E+01  -1.94345   4.85861
    6310.00   4.800029     0.1080E+01  -1.94859   4.87147
    6330.00   4.801404     0.1069E+01  -1.95279   4.88197
    6350.00   4.802773     0.1056E+01  -1.95808   4.89520
    6370.00   4.804139     0.1046E+01  -1.96238   4.90596
    6390.00   4.805501     0.1033E+01  -1.96790   4.91975
    6420.00   4.807535     0.1016E+01  -1.97496   4.93740
    6460.00   4.810232     0.9931E+00  -1.98489   4.96223
    6500.00   4.812913     0.9714E+00  -1.99452   4.98629
    6540.00   4.815578     0.9501E+00  -2.00415   5.01037
    6580.00   4.818226     0.9297E+00  -2.01354   5.03385
    6620.00   4.820858     0.9092E+00  -2.02324   5.05810
    6660.00   4.823474     0.8896E+00  -2.03268   5.08171
    6700.00   4.826075     0.8706E+00  -2.04210   5.10526
    6740.00   4.828660     0.8515E+00  -2.05169   5.12924
    6780.00   4.831230     0.8334E+00  -2.06104   5.15259
    6820.00   4.833784     0.8155E+00  -2.07046   5.17614
    6860.00   4.836324     0.7985E+00  -2.07960   5.19899
    6900.00   4.838849     0.7816E+00  -2.08894   5.22234
    6940.00   4.841359     0.7652E+00  -2.09813   5.24532
    6980.00   4.843855     0.7493E+00  -2.10727   5.26818
    7020.00   4.846337     0.7334E+00  -2.11654   5.29135
    7060.00   4.848804     0.7184E+00  -2.12551   5.31377
    7100.00   4.851258     0.7036E+00  -2.13458   5.33645
    7140.00   4.853698     0.6892E+00  -2.14354   5.35884
    7180.00   4.856124     0.6751E+00  -2.15255   5.38138
    7220.00   4.858537     0.6614E+00  -2.16143   5.40358
    7260.00   4.860937     0.6479E+00  -2.17036   5.42590
    7300.00   4.863323     0.6349E+00  -2.17916   5.44791
    7340.00   4.865696     0.6221E+00  -2.18805   5.47013
    7380.00   4.868056     0.6098E+00  -2.19673   5.49184
    7420.00   4.870404     0.5973E+00  -2.20572   5.51430
    7460.00   4.872739     0.5855E+00  -2.21436   5.53590
    7500.00   4.875061     0.5741E+00  -2.22293   5.55732
    7540.00   4.877371     0.5627E+00  -2.23162   5.57904
    7580.00   4.879669     0.5521E+00  -2.23991   5.59978
    7620.00   4.881955     0.5413E+00  -2.24842   5.62105
    7660.00   4.884229     0.5309E+00  -2.25690   5.64224
    7700.00   4.886491     0.5206E+00  -2.26539   5.66347
    7740.00   4.888741     0.5107E+00  -2.27373   5.68432
    7780.00   4.890980     0.5010E+00  -2.28206   5.70516
    7820.00   4.893207     0.4915E+00  -2.29040   5.72599
    7860.00   4.895422     0.4822E+00  -2.29866   5.74665
    7900.00   4.897627     0.4731E+00  -2.30691   5.76728
    7940.00   4.899820     0.4643E+00  -2.31511   5.78776
    7980.00   4.902003     0.4557E+00  -2.32324   5.80811
    8020.00   4.904174     0.4471E+00  -2.33153   5.82882
    8060.00   4.906335     0.4388E+00  -2.33958   5.84896
    8100.00   4.908485     0.4309E+00  -2.34756   5.86890
    8140.00   4.910625     0.4229E+00  -2.35562   5.88906
    8180.00   4.912753     0.4153E+00  -2.36352   5.90879
    8220.00   4.914872     0.4078E+00  -2.37145   5.92863
    8260.00   4.916980     0.4004E+00  -2.37938   5.94845
    8300.00   4.919078     0.3932E+00  -2.38725   5.96811
    8340.00   4.921166     0.3861E+00  -2.39519   5.98797
    8380.00   4.923244     0.3792E+00  -2.40301   6.00752
    8420.00   4.925312     0.3726E+00  -2.41067   6.02667
    8460.00   4.927370     0.3660E+00  -2.41844   6.04611
    8500.00   4.929419     0.3596E+00  -2.42613   6.06532
    8540.00   4.931458     0.3533E+00  -2.43376   6.08441
    8580.00   4.933487     0.3472E+00  -2.44137   6.10342
    8620.00   4.935507     0.3411E+00  -2.44896   6.12240
    8660.00   4.937518     0.3353E+00  -2.45650   6.14124
    8700.00   4.939519     0.3295E+00  -2.46405   6.16012
    8740.00   4.941511     0.3239E+00  -2.47153   6.17883
    8780.00   4.943495     0.3183E+00  -2.47902   6.19755
    8820.00   4.945469     0.3129E+00  -2.48651   6.21628
    8860.00   4.947433     0.3076E+00  -2.49390   6.23475
    8900.00   4.949390     0.3024E+00  -2.50131   6.25327
    8940.00   4.951338     0.2974E+00  -2.50858   6.27146
    8980.00   4.953277     0.2923E+00  -2.51604   6.29010
    9020.00   4.955207     0.2876E+00  -2.52318   6.30794
    9060.00   4.957129     0.2828E+00  -2.53040   6.32600
    9100.00   4.959042     0.2780E+00  -2.53784   6.34461
    9140.00   4.960946     0.2735E+00  -2.54489   6.36223
    9180.00   4.962843     0.2691E+00  -2.55206   6.38016
    9220.00   4.964731     0.2647E+00  -2.55909   6.39773
    9260.00   4.966611     0.2604E+00  -2.56621   6.41552
    9300.00   4.968483     0.2562E+00  -2.57327   6.43317
    9340.00   4.970347     0.2521E+00  -2.58034   6.45085
    9380.00   4.972203     0.2481E+00  -2.58734   6.46834
    9420.00   4.974051     0.2441E+00  -2.59432   6.48581
    9460.00   4.975891     0.2402E+00  -2.60132   6.50330
    9500.00   4.977724     0.2364E+00  -2.60824   6.52061
    9540.00   4.979548     0.2327E+00  -2.61515   6.53787
    9580.00   4.981365     0.2290E+00  -2.62200   6.55501
    9620.00   4.983175     0.2254E+00  -2.62888   6.57219
    9660.00   4.984977     0.2219E+00  -2.63569   6.58922
    9700.00   4.986772     0.2185E+00  -2.64248   6.60619
    9740.00   4.988559     0.2150E+00  -2.64944   6.62361
    9780.00   4.990339     0.2118E+00  -2.65606   6.64015
    9820.00   4.992111     0.2085E+00  -2.66273   6.65682
    9860.00   4.993877     0.2053E+00  -2.66942   6.67356
    9900.00   4.995635     0.2022E+00  -2.67608   6.69020
    9940.00   4.997386     0.1991E+00  -2.68275   6.70688
    9980.00   4.999130     0.1961E+00  -2.68936   6.72340
   10020.00   5.000868     0.1932E+00  -2.69595   6.73987
   20000.00   5.301030     0.1344E-01  -3.85338   9.63346
   40000.00   5.602060     0.8805E-03  -5.03717  12.59291
   60000.00   5.778151     0.1764E-03  -5.73542  14.33856
   80000.00   5.903090     0.5616E-04  -6.23247  15.58117
  100000.00   6.000000     0.2308E-04  -6.61869  16.54672
  120000.00   6.079181     0.1115E-04  -6.93460  17.33650
  140000.00   6.146128     0.6025E-05  -7.20192  18.00481
  160000.00   6.204120     0.3534E-05  -7.43361  18.58403
