age =   12.0    [Fe/H] =   -0.25

wavele(nm) log wave(A)   Hlam       log(Hlam/Hlam(V))  Hlam(mag(V)) 
      89.50   2.951823     0.1060E-12 -15.20772  38.01931
      90.50   2.956649     0.2235E-12 -14.88383  37.20958
      91.50   2.961421     0.3499E-12 -14.68905  36.72263
      92.50   2.966142     0.6584E-10 -12.41459  31.03647
      93.50   2.970812     0.9101E-10 -12.27395  30.68488
      94.50   2.975432     0.1300E-09 -12.11921  30.29802
      95.50   2.980003     0.1939E-09 -11.94548  29.86370
      96.50   2.984527     0.2786E-09 -11.78811  29.47028
      97.50   2.989005     0.3666E-09 -11.66884  29.17210
      98.50   2.993436     0.5159E-09 -11.52052  28.80131
      99.50   2.997823     0.6972E-09 -11.38969  28.47424
     100.50   3.002166     0.1017E-08 -11.22586  28.06464
     101.50   3.006466     0.1364E-08 -11.09826  27.74566
     102.50   3.010724     0.1545E-08 -11.04420  27.61050
     103.50   3.014940     0.2516E-08 -10.83233  27.08083
     104.50   3.019116     0.3440E-08 -10.69650  26.74124
     105.50   3.023252     0.4367E-08 -10.59284  26.48210
     106.50   3.027350     0.5818E-08 -10.46827  26.17067
     107.50   3.031409     0.7784E-08 -10.34186  25.85464
     108.50   3.035430     0.1040E-07 -10.21613  25.54033
     109.50   3.039414     0.1301E-07 -10.11886  25.29716
     110.50   3.043362     0.8338E-07  -9.31197  23.27992
     111.50   3.047275     0.1545E-06  -9.04426  22.61065
     112.50   3.051152     0.2353E-06  -8.86146  22.15364
     113.50   3.054996     0.3572E-06  -8.68019  21.70048
     114.50   3.058805     0.4727E-06  -8.55848  21.39620
     115.50   3.062582     0.5415E-06  -8.49943  21.24858
     116.50   3.066326     0.7181E-06  -8.37685  20.94213
     117.50   3.070038     0.9091E-06  -8.27443  20.68608
     118.50   3.073718     0.9373E-06  -8.26119  20.65298
     119.50   3.077368     0.6901E-06  -8.39415  20.98538
     120.50   3.080987     0.6334E-06  -8.43134  21.07835
     121.50   3.084576     0.1245E-06  -9.13785  22.84462
     122.50   3.088136     0.8331E-06  -8.31234  20.78086
     123.50   3.091667     0.2105E-05  -7.90982  19.77456
     124.50   3.095169     0.3507E-05  -7.68816  19.22040
     125.50   3.098644     0.4677E-05  -7.56309  18.90773
     126.50   3.102091     0.5168E-05  -7.51971  18.79927
     127.50   3.105510     0.6699E-05  -7.40704  18.51759
     128.50   3.108903     0.8158E-05  -7.32147  18.30368
     129.50   3.112270     0.9887E-05  -7.23796  18.09491
     130.50   3.115611     0.1063E-04  -7.20648  18.01620
     131.50   3.118926     0.1348E-04  -7.10326  17.75814
     132.50   3.122216     0.1457E-04  -7.06950  17.67374
     133.50   3.125481     0.1626E-04  -7.02198  17.55496
     134.50   3.128722     0.1918E-04  -6.95022  17.37556
     135.50   3.131939     0.2194E-04  -6.89174  17.22935
     136.50   3.135133     0.2392E-04  -6.85421  17.13552
     137.50   3.138303     0.2574E-04  -6.82250  17.05626
     138.50   3.141450     0.2815E-04  -6.78357  16.95892
     139.50   3.144574     0.3182E-04  -6.73031  16.82577
     140.50   3.147676     0.3785E-04  -6.65494  16.63735
     141.50   3.150756     0.4284E-04  -6.60121  16.50304
     142.50   3.153815     0.4842E-04  -6.54800  16.37001
     143.50   3.156852     0.5649E-04  -6.48105  16.20262
     144.20   3.158965     0.7313E-04  -6.36894  15.92236
     144.70   3.160469     0.6560E-04  -6.41612  16.04031
     145.50   3.162863     0.7741E-04  -6.34426  15.86066
     146.50   3.165838     0.9586E-04  -6.25143  15.62856
     147.50   3.168792     0.1085E-03  -6.19769  15.49423
     148.50   3.171726     0.1170E-03  -6.16501  15.41252
     149.50   3.174641     0.1525E-03  -6.04989  15.12473
     150.50   3.177536     0.1835E-03  -5.96948  14.92369
     151.20   3.179552     0.1425E-03  -6.07936  15.19839
     151.70   3.180986     0.1781E-03  -5.98250  14.95626
     152.50   3.183270     0.3714E-03  -5.66326  14.15816
     153.50   3.186108     0.5685E-03  -5.47830  13.69576
     154.50   3.188928     0.4847E-03  -5.54761  13.86903
     155.50   3.191730     0.7381E-03  -5.36496  13.41241
     156.50   3.194514     0.7012E-03  -5.38722  13.46804
     157.50   3.197281     0.1195E-02  -5.15561  12.88904
     158.50   3.200029     0.1435E-02  -5.07613  12.69034
     159.50   3.202761     0.1665E-02  -5.01158  12.52894
     160.50   3.205475     0.1777E-02  -4.98329  12.45822
     161.50   3.208173     0.1994E-02  -4.93332  12.33329
     162.50   3.210853     0.2184E-02  -4.89375  12.23438
     163.50   3.213518     0.2577E-02  -4.82188  12.05471
     164.50   3.216166     0.3537E-02  -4.68446  11.71116
     165.50   3.218798     0.2312E-02  -4.86911  12.17278
     166.50   3.221414     0.4039E-02  -4.62674  11.56686
     167.20   3.223236     0.2927E-02  -4.76657  11.91642
     167.70   3.224533     0.1105E-01  -4.18963  10.47407
     168.50   3.226600     0.1164E-01  -4.16722  10.41804
     169.50   3.229170     0.1351E-01  -4.10226  10.25566
     170.50   3.231725     0.1567E-01  -4.03808  10.09520
     171.50   3.234264     0.1958E-01  -3.94120   9.85299
     172.50   3.236789     0.2420E-01  -3.84929   9.62323
     173.50   3.239300     0.3172E-01  -3.73168   9.32921
     174.50   3.241796     0.4026E-01  -3.62815   9.07039
     175.50   3.244277     0.5931E-01  -3.45990   8.64974
     176.50   3.246745     0.4693E-01  -3.56158   8.90394
     177.50   3.249198     0.5744E-01  -3.47386   8.68465
     178.50   3.251638     0.7608E-01  -3.35178   8.37946
     179.50   3.254065     0.1070E+00  -3.20347   8.00866
     180.50   3.256477     0.1079E+00  -3.20016   8.00041
     181.50   3.258877     0.9181E-01  -3.27016   8.17540
     182.50   3.261263     0.1154E+00  -3.17095   7.92736
     183.50   3.263636     0.1188E+00  -3.15814   7.89536
     184.50   3.265996     0.7044E-01  -3.38520   8.46301
     185.50   3.268344     0.1366E+00  -3.09775   7.74437
     186.50   3.270679     0.1792E+00  -2.97967   7.44918
     187.50   3.273001     0.1837E+00  -2.96894   7.42234
     188.50   3.275311     0.1957E+00  -2.94138   7.35344
     189.50   3.277609     0.2623E+00  -2.81422   7.03554
     190.50   3.279895     0.2462E+00  -2.84171   7.10427
     191.50   3.282169     0.2790E+00  -2.78749   6.96874
     192.50   3.284431     0.2372E+00  -2.85802   7.14505
     193.50   3.286681     0.1261E+00  -3.13243   7.83107
     194.50   3.288920     0.3429E+00  -2.69789   6.74473
     195.50   3.291147     0.3597E+00  -2.67710   6.69275
     196.70   3.293804     0.4831E+00  -2.54903   6.37259
     197.60   3.295787     0.4093E+00  -2.62101   6.55253
     198.40   3.297542     0.5270E+00  -2.51123   6.27807
     199.50   3.299943     0.5759E+00  -2.47272   6.18179
     200.50   3.302114     0.5291E+00  -2.50955   6.27387
     201.50   3.304275     0.5818E+00  -2.46830   6.17076
     202.50   3.306425     0.4178E+00  -2.61210   6.53024
     203.50   3.308564     0.6555E+00  -2.41645   6.04112
     204.50   3.310693     0.7703E+00  -2.34637   5.86592
     205.50   3.312812     0.7416E+00  -2.36288   5.90719
     206.50   3.314920     0.7137E+00  -2.37956   5.94890
     207.40   3.316809     0.8121E+00  -2.32345   5.80863
     207.80   3.317646     0.2154E+01  -1.89981   4.74953
     208.50   3.319106     0.2813E+01  -1.78385   4.45963
     209.50   3.321184     0.2532E+01  -1.82952   4.57380
     210.50   3.323252     0.2413E+01  -1.85047   4.62618
     211.50   3.325310     0.2890E+01  -1.77210   4.43025
     212.50   3.327359     0.2422E+01  -1.84889   4.62222
     213.50   3.329398     0.2346E+01  -1.86270   4.65676
     214.50   3.331427     0.3206E+01  -1.72707   4.31769
     215.50   3.333447     0.3093E+01  -1.74261   4.35652
     216.50   3.335458     0.2549E+01  -1.82662   4.56654
     217.50   3.337459     0.2586E+01  -1.82045   4.55112
     218.50   3.339452     0.3637E+01  -1.67235   4.18088
     219.50   3.341434     0.3520E+01  -1.68646   4.21616
     220.50   3.343409     0.3426E+01  -1.69822   4.24554
     221.50   3.345374     0.2463E+01  -1.84151   4.60378
     222.50   3.347330     0.3169E+01  -1.73209   4.33024
     223.50   3.349277     0.4482E+01  -1.58158   3.95395
     224.50   3.351216     0.4234E+01  -1.60628   4.01571
     225.50   3.353147     0.2968E+01  -1.76056   4.40139
     226.50   3.355068     0.2604E+01  -1.81737   4.54343
     227.50   3.356982     0.2853E+01  -1.77771   4.44426
     228.50   3.358886     0.4379E+01  -1.59169   3.97922
     229.50   3.360783     0.3416E+01  -1.69956   4.24889
     230.50   3.362671     0.4465E+01  -1.58326   3.95815
     231.50   3.364551     0.3640E+01  -1.67195   4.17988
     232.50   3.366423     0.2980E+01  -1.75885   4.39714
     233.50   3.368287     0.2439E+01  -1.84586   4.61465
     234.50   3.370143     0.1441E+01  -2.07426   5.18566
     235.50   3.371991     0.3416E+01  -1.69951   4.24876
     236.50   3.373831     0.1690E+01  -2.00515   5.01287
     237.50   3.375664     0.2417E+01  -1.84979   4.62447
     238.50   3.377488     0.1211E+01  -2.14991   5.37477
     239.50   3.379306     0.1651E+01  -2.01522   5.03804
     240.50   3.381115     0.1689E+01  -2.00546   5.01364
     241.50   3.382917     0.2134E+01  -1.90389   4.75972
     242.50   3.384712     0.4331E+01  -1.59649   3.99123
     243.50   3.386499     0.4366E+01  -1.59296   3.98241
     244.50   3.388279     0.5429E+01  -1.49834   3.74584
     245.50   3.390052     0.5855E+01  -1.46552   3.66380
     246.50   3.391817     0.4799E+01  -1.55188   3.87970
     247.50   3.393575     0.4057E+01  -1.62484   4.06209
     248.50   3.395326     0.1856E+01  -1.96457   4.91144
     249.50   3.397071     0.2754E+01  -1.79315   4.48287
     250.50   3.398808     0.4793E+01  -1.55241   3.88102
     251.30   3.400192     0.1611E+01  -2.02597   5.06492
     251.80   3.401056     0.1070E+01  -2.20361   5.50902
     252.50   3.402261     0.1329E+01  -2.10964   5.27411
     253.50   3.403978     0.2996E+01  -1.75657   4.39142
     254.50   3.405688     0.3205E+01  -1.72721   4.31802
     255.50   3.407391     0.6821E+01  -1.39920   3.49801
     256.50   3.409087     0.4737E+01  -1.55757   3.89393
     257.50   3.410777     0.6444E+01  -1.42390   3.55974
     258.50   3.412461     0.5520E+01  -1.49110   3.72776
     259.50   3.414137     0.4827E+01  -1.54939   3.87346
     260.50   3.415808     0.3983E+01  -1.63282   4.08204
     261.50   3.417472     0.3486E+01  -1.69069   4.22673
     262.50   3.419129     0.5169E+01  -1.51963   3.79907
     263.50   3.420781     0.1018E+02  -1.22512   3.06280
     264.50   3.422426     0.1405E+02  -1.08522   2.71306
     265.50   3.424065     0.2029E+02  -0.92568   2.31420
     266.50   3.425697     0.1255E+02  -1.13431   2.83577
     267.50   3.427324     0.1435E+02  -1.07607   2.69018
     268.50   3.428944     0.1705E+02  -1.00141   2.50352
     269.50   3.430559     0.1165E+02  -1.16654   2.91636
     270.50   3.432167     0.1484E+02  -1.06167   2.65417
     271.50   3.433770     0.1019E+02  -1.22483   3.06207
     272.50   3.435366     0.7570E+01  -1.35393   3.38482
     273.50   3.436957     0.1022E+02  -1.22353   3.05882
     274.50   3.438542     0.5336E+01  -1.50581   3.76452
     275.50   3.440122     0.7908E+01  -1.33497   3.33743
     276.50   3.441695     0.1093E+02  -1.19450   2.98624
     277.50   3.443263     0.1159E+02  -1.16900   2.92250
     278.50   3.444825     0.6171E+01  -1.44269   3.60672
     279.50   3.446382     0.2393E+01  -1.85405   4.63513
     280.50   3.447933     0.3018E+01  -1.75333   4.38332
     281.50   3.449478     0.9858E+01  -1.23926   3.09815
     282.50   3.451018     0.1512E+02  -1.05344   2.63360
     283.50   3.452553     0.1382E+02  -1.09253   2.73132
     284.50   3.454082     0.8900E+01  -1.28366   3.20914
     285.50   3.455606     0.4305E+01  -1.59905   3.99763
     286.50   3.457125     0.1331E+02  -1.10875   2.77187
     287.50   3.458638     0.1932E+02  -0.94698   2.36746
     288.50   3.460146     0.1748E+02  -0.99055   2.47639
     289.50   3.461648     0.2228E+02  -0.88512   2.21281
     291.00   3.463893     0.3124E+02  -0.73830   1.84575
     293.00   3.466868     0.2825E+02  -0.78201   1.95503
     295.00   3.469822     0.2694E+02  -0.80265   2.00661
     297.00   3.472756     0.2829E+02  -0.78138   1.95344
     299.00   3.475671     0.2954E+02  -0.76269   1.90672
     301.00   3.478566     0.2978E+02  -0.75913   1.89783
     303.00   3.481443     0.3210E+02  -0.72657   1.81643
     305.00   3.484300     0.3363E+02  -0.70635   1.76586
     307.00   3.487138     0.3444E+02  -0.69605   1.74012
     309.00   3.489959     0.3164E+02  -0.73281   1.83202
     311.00   3.492760     0.3714E+02  -0.66317   1.65792
     313.00   3.495544     0.3387E+02  -0.70328   1.75820
     315.00   3.498311     0.3342E+02  -0.70909   1.77272
     317.00   3.501059     0.3795E+02  -0.65386   1.63464
     319.00   3.503791     0.3298E+02  -0.71484   1.78709
     321.00   3.506505     0.3675E+02  -0.66784   1.66959
     323.00   3.509202     0.3153E+02  -0.73430   1.83575
     325.00   3.511883     0.4473E+02  -0.58248   1.45621
     327.00   3.514548     0.5210E+02  -0.51625   1.29063
     329.00   3.517196     0.5094E+02  -0.52599   1.31497
     331.00   3.519828     0.4721E+02  -0.55903   1.39759
     333.00   3.522444     0.4877E+02  -0.54491   1.36227
     335.00   3.525045     0.4716E+02  -0.55946   1.39865
     337.00   3.527630     0.3414E+02  -0.69980   1.74951
     339.00   3.530200     0.4029E+02  -0.62787   1.56969
     341.00   3.532754     0.4198E+02  -0.60996   1.52489
     343.00   3.535294     0.4557E+02  -0.57438   1.43594
     345.00   3.537819     0.4915E+02  -0.54155   1.35387
     347.00   3.540329     0.5128E+02  -0.52308   1.30769
     349.00   3.542825     0.5728E+02  -0.47507   1.18766
     351.00   3.545307     0.6091E+02  -0.44835   1.12088
     353.00   3.547775     0.5475E+02  -0.49467   1.23667
     355.00   3.550228     0.6254E+02  -0.43687   1.09218
     357.00   3.552668     0.4594E+02  -0.57089   1.42724
     359.00   3.555094     0.4698E+02  -0.56114   1.40284
     361.00   3.557507     0.5794E+02  -0.47005   1.17513
     363.00   3.559907     0.5957E+02  -0.45803   1.14508
     364.00   3.561101     0.6107E+02  -0.44724   1.11810
     365.00   3.562293     0.6603E+02  -0.41333   1.03331
     367.00   3.564666     0.7035E+02  -0.38577   0.96441
     369.00   3.567026     0.6349E+02  -0.43035   1.07588
     371.00   3.569374     0.6689E+02  -0.40767   1.01918
     373.00   3.571709     0.4449E+02  -0.58482   1.46204
     375.00   3.574031     0.5088E+02  -0.52653   1.31633
     377.00   3.576341     0.6615E+02  -0.41253   1.03134
     379.00   3.578639     0.6823E+02  -0.39908   0.99770
     381.00   3.580925     0.6480E+02  -0.42150   1.05374
     383.00   3.583199     0.3685E+02  -0.66663   1.66657
     385.00   3.585461     0.5187E+02  -0.51815   1.29537
     387.00   3.587711     0.5090E+02  -0.52633   1.31582
     389.00   3.589950     0.6205E+02  -0.44028   1.10070
     391.00   3.592177     0.7484E+02  -0.35893   0.89732
     393.00   3.594393     0.3639E+02  -0.67202   1.68006
     395.00   3.596597     0.6561E+02  -0.41610   1.04025
     397.00   3.598790     0.4514E+02  -0.57853   1.44632
     399.00   3.600973     0.9657E+02  -0.24822   0.62056
     401.00   3.603144     0.1059E+03  -0.20805   0.52011
     403.00   3.605305     0.1045E+03  -0.21379   0.53447
     405.00   3.607455     0.1005E+03  -0.23101   0.57752
     407.00   3.609594     0.9525E+02  -0.25420   0.63551
     409.00   3.611723     0.1162E+03  -0.16801   0.42002
     411.00   3.613842     0.1091E+03  -0.19510   0.48775
     413.00   3.615950     0.1073E+03  -0.20237   0.50592
     415.00   3.618048     0.1049E+03  -0.21215   0.53037
     417.00   3.620136     0.1069E+03  -0.20388   0.50970
     419.00   3.622214     0.1038E+03  -0.21673   0.54182
     421.00   3.624282     0.1048E+03  -0.21263   0.53157
     423.00   3.626340     0.9935E+02  -0.23589   0.58973
     425.00   3.628389     0.1048E+03  -0.21251   0.53128
     427.00   3.630428     0.9874E+02  -0.23855   0.59638
     429.00   3.632457     0.9188E+02  -0.26981   0.67451
     431.00   3.634477     0.7863E+02  -0.33748   0.84371
     433.00   3.636488     0.1168E+03  -0.16543   0.41357
     435.00   3.638489     0.1155E+03  -0.17041   0.42603
     437.00   3.640481     0.1252E+03  -0.13558   0.33895
     439.00   3.642465     0.1118E+03  -0.18446   0.46115
     441.00   3.644439     0.1195E+03  -0.15556   0.38889
     443.00   3.646404     0.1302E+03  -0.11857   0.29642
     445.00   3.648360     0.1307E+03  -0.11666   0.29166
     447.00   3.650307     0.1396E+03  -0.08823   0.22056
     449.00   3.652246     0.1436E+03  -0.07600   0.19001
     451.00   3.654176     0.1617E+03  -0.02445   0.06113
     453.00   3.656098     0.1429E+03  -0.07814   0.19535
     455.00   3.658011     0.1498E+03  -0.05742   0.14355
     457.00   3.659916     0.1615E+03  -0.02475   0.06189
     459.00   3.661813     0.1522E+03  -0.05066   0.12664
     461.00   3.663701     0.1574E+03  -0.03610   0.09026
     463.00   3.665581     0.1541E+03  -0.04516   0.11291
     465.00   3.667453     0.1560E+03  -0.04005   0.10012
     467.00   3.669317     0.1624E+03  -0.02235   0.05588
     469.00   3.671173     0.1597E+03  -0.02970   0.07425
     471.00   3.673021     0.1563E+03  -0.03910   0.09775
     473.00   3.674861     0.1611E+03  -0.02607   0.06517
     475.00   3.676694     0.1647E+03  -0.01625   0.04061
     477.00   3.678518     0.1613E+03  -0.02543   0.06357
     479.00   3.680336     0.1624E+03  -0.02234   0.05586
     481.00   3.682145     0.1632E+03  -0.02040   0.05101
     483.00   3.683947     0.1675E+03  -0.00897   0.02243
     485.00   3.685742     0.1608E+03  -0.02684   0.06711
     487.00   3.687529     0.1481E+03  -0.06250   0.15626
     489.00   3.689309     0.1635E+03  -0.01959   0.04898
     491.00   3.691082     0.1646E+03  -0.01668   0.04171
     493.00   3.692847     0.1619E+03  -0.02375   0.05937
     495.00   3.694605     0.1679E+03  -0.00811   0.02027
     497.00   3.696356     0.1628E+03  -0.02127   0.05316
     499.00   3.698101     0.1523E+03  -0.05024   0.12561
     501.00   3.699838     0.1445E+03  -0.07332   0.18329
     503.00   3.701568     0.1539E+03  -0.04591   0.11478
     505.00   3.703291     0.1536E+03  -0.04652   0.11630
     507.00   3.705008     0.1602E+03  -0.02851   0.07127
     509.00   3.706718     0.1525E+03  -0.04989   0.12472
     511.00   3.708421     0.1559E+03  -0.04034   0.10085
     513.00   3.710117     0.1518E+03  -0.05186   0.12964
     515.00   3.711807     0.1465E+03  -0.06710   0.16774
     517.00   3.713490     0.1328E+03  -0.10969   0.27422
     519.00   3.715167     0.1381E+03  -0.09280   0.23200
     521.00   3.716838     0.1491E+03  -0.05969   0.14923
     523.00   3.718502     0.1620E+03  -0.02359   0.05897
     525.00   3.720159     0.1687E+03  -0.00588   0.01471
     527.00   3.721811     0.1495E+03  -0.05844   0.14611
     529.00   3.723456     0.1718E+03   0.00200  -0.00499
     531.00   3.725095     0.1815E+03   0.02591  -0.06477
     533.00   3.726727     0.1616E+03  -0.02467   0.06166
     535.00   3.728354     0.1767E+03   0.01421  -0.03553
     537.00   3.729974     0.1750E+03   0.00990  -0.02475
     539.00   3.731589     0.1719E+03   0.00233  -0.00583
     541.00   3.733197     0.1693E+03  -0.00448   0.01120
     543.00   3.734800     0.1719E+03   0.00212  -0.00530
     545.00   3.736397     0.1750E+03   0.01009  -0.02522
     547.00   3.737987     0.1714E+03   0.00094  -0.00234
     549.00   3.739572     0.1734E+03   0.00587  -0.01469
     551.00   3.741152     0.1710E+03   0.00000   0.00000
     553.00   3.742725     0.1770E+03   0.01482  -0.03705
     555.00   3.744293     0.1800E+03   0.02211  -0.05528
     557.00   3.745855     0.1758E+03   0.01187  -0.02967
     559.00   3.747412     0.1717E+03   0.00166  -0.00415
     561.00   3.748963     0.1768E+03   0.01433  -0.03584
     563.00   3.750508     0.1766E+03   0.01383  -0.03458
     565.00   3.752048     0.1793E+03   0.02060  -0.05151
     567.00   3.753583     0.1753E+03   0.01082  -0.02704
     569.00   3.755112     0.1804E+03   0.02327  -0.05818
     571.00   3.756636     0.1751E+03   0.01022  -0.02556
     573.00   3.758155     0.1883E+03   0.04170  -0.10426
     575.00   3.759668     0.1831E+03   0.02963  -0.07407
     577.00   3.761176     0.1850E+03   0.03422  -0.08556
     579.00   3.762679     0.1791E+03   0.01996  -0.04991
     581.00   3.764176     0.1853E+03   0.03480  -0.08700
     583.00   3.765669     0.1889E+03   0.04315  -0.10787
     585.00   3.767156     0.1824E+03   0.02793  -0.06983
     587.00   3.768638     0.1816E+03   0.02605  -0.06512
     589.00   3.770115     0.1624E+03  -0.02249   0.05622
     591.00   3.771587     0.1783E+03   0.01821  -0.04552
     593.00   3.773055     0.1801E+03   0.02240  -0.05599
     595.00   3.774517     0.1808E+03   0.02404  -0.06009
     597.00   3.775974     0.1839E+03   0.03161  -0.07902
     599.00   3.777427     0.1820E+03   0.02697  -0.06743
     601.00   3.778874     0.1800E+03   0.02230  -0.05575
     603.00   3.780317     0.1842E+03   0.03232  -0.08080
     605.00   3.781755     0.1878E+03   0.04063  -0.10158
     607.00   3.783189     0.1870E+03   0.03880  -0.09699
     609.00   3.784617     0.1820E+03   0.02714  -0.06785
     611.00   3.786041     0.1829E+03   0.02925  -0.07312
     613.00   3.787461     0.1744E+03   0.00837  -0.02094
     615.00   3.788875     0.1784E+03   0.01829  -0.04573
     617.00   3.790285     0.1679E+03  -0.00809   0.02023
     619.00   3.791691     0.1763E+03   0.01325  -0.03313
     621.00   3.793092     0.1748E+03   0.00946  -0.02365
     623.00   3.794488     0.1700E+03  -0.00262   0.00655
     625.00   3.795880     0.1657E+03  -0.01386   0.03465
     627.00   3.797267     0.1734E+03   0.00591  -0.01478
     629.00   3.798651     0.1769E+03   0.01456  -0.03641
     631.00   3.800029     0.1740E+03   0.00739  -0.01848
     633.00   3.801404     0.1771E+03   0.01512  -0.03779
     635.00   3.802774     0.1788E+03   0.01937  -0.04843
     637.00   3.804139     0.1787E+03   0.01916  -0.04789
     639.00   3.805501     0.1812E+03   0.02502  -0.06254
     641.00   3.806858     0.1780E+03   0.01729  -0.04322
     643.00   3.808211     0.1797E+03   0.02150  -0.05374
     645.00   3.809560     0.1793E+03   0.02050  -0.05126
     647.00   3.810904     0.1790E+03   0.01975  -0.04939
     649.00   3.812245     0.1760E+03   0.01252  -0.03129
     651.00   3.813581     0.1818E+03   0.02662  -0.06654
     653.00   3.814913     0.1828E+03   0.02903  -0.07258
     655.00   3.816241     0.1781E+03   0.01764  -0.04409
     657.00   3.817565     0.1680E+03  -0.00780   0.01950
     659.00   3.818885     0.1781E+03   0.01759  -0.04398
     661.00   3.820201     0.1798E+03   0.02164  -0.05411
     663.00   3.821513     0.1777E+03   0.01654  -0.04136
     665.00   3.822822     0.1758E+03   0.01205  -0.03012
     667.00   3.824126     0.1717E+03   0.00165  -0.00412
     669.00   3.825426     0.1733E+03   0.00565  -0.01413
     671.00   3.826723     0.1667E+03  -0.01120   0.02800
     673.00   3.828015     0.1698E+03  -0.00315   0.00789
     675.00   3.829304     0.1671E+03  -0.01019   0.02548
     677.00   3.830589     0.1680E+03  -0.00765   0.01912
     679.00   3.831870     0.1669E+03  -0.01063   0.02659
     681.00   3.833147     0.1677E+03  -0.00855   0.02137
     683.00   3.834421     0.1701E+03  -0.00246   0.00616
     685.00   3.835690     0.1668E+03  -0.01088   0.02721
     687.00   3.836957     0.1695E+03  -0.00401   0.01001
     689.00   3.838219     0.1727E+03   0.00415  -0.01037
     691.00   3.839478     0.1737E+03   0.00682  -0.01705
     693.00   3.840733     0.1733E+03   0.00582  -0.01456
     695.00   3.841985     0.1736E+03   0.00645  -0.01612
     697.00   3.843233     0.1766E+03   0.01383  -0.03458
     699.00   3.844477     0.1767E+03   0.01418  -0.03544
     701.00   3.845718     0.1754E+03   0.01087  -0.02717
     703.00   3.846955     0.1767E+03   0.01424  -0.03560
     705.00   3.848189     0.1739E+03   0.00725  -0.01812
     707.00   3.849419     0.1664E+03  -0.01180   0.02951
     709.00   3.850646     0.1598E+03  -0.02947   0.07369
     711.00   3.851870     0.1552E+03  -0.04203   0.10507
     713.00   3.853090     0.1514E+03  -0.05289   0.13223
     715.00   3.854306     0.1511E+03  -0.05389   0.13471
     717.00   3.855519     0.1533E+03  -0.04747   0.11868
     719.00   3.856729     0.1509E+03  -0.05437   0.13592
     721.00   3.857935     0.1550E+03  -0.04266   0.10665
     723.00   3.859138     0.1594E+03  -0.03049   0.07623
     725.00   3.860338     0.1614E+03  -0.02527   0.06317
     727.00   3.861534     0.1634E+03  -0.01986   0.04965
     729.00   3.862728     0.1635E+03  -0.01965   0.04914
     731.00   3.863917     0.1695E+03  -0.00384   0.00959
     733.00   3.865104     0.1697E+03  -0.00343   0.00856
     735.00   3.866287     0.1728E+03   0.00449  -0.01123
     737.00   3.867467     0.1771E+03   0.01522  -0.03805
     739.00   3.868644     0.1741E+03   0.00784  -0.01960
     741.00   3.869818     0.1741E+03   0.00767  -0.01918
     743.00   3.870989     0.1779E+03   0.01704  -0.04259
     745.00   3.872156     0.1778E+03   0.01691  -0.04226
     747.00   3.873321     0.1803E+03   0.02303  -0.05758
     749.00   3.874482     0.1794E+03   0.02089  -0.05222
     751.00   3.875640     0.1804E+03   0.02324  -0.05809
     753.00   3.876795     0.1821E+03   0.02721  -0.06802
     755.00   3.877947     0.1829E+03   0.02915  -0.07288
     757.00   3.879096     0.1819E+03   0.02685  -0.06713
     759.00   3.880242     0.1778E+03   0.01690  -0.04225
     761.00   3.881385     0.1740E+03   0.00760  -0.01899
     763.00   3.882524     0.1700E+03  -0.00252   0.00630
     765.00   3.883662     0.1655E+03  -0.01427   0.03566
     767.00   3.884795     0.1578E+03  -0.03487   0.08717
     769.00   3.885926     0.1611E+03  -0.02608   0.06520
     771.00   3.887054     0.1581E+03  -0.03409   0.08523
     773.00   3.888180     0.1588E+03  -0.03231   0.08079
     775.00   3.889302     0.1575E+03  -0.03587   0.08968
     777.00   3.890421     0.1599E+03  -0.02922   0.07306
     779.00   3.891537     0.1601E+03  -0.02872   0.07180
     781.00   3.892651     0.1608E+03  -0.02687   0.06719
     783.00   3.893762     0.1605E+03  -0.02759   0.06898
     785.00   3.894870     0.1591E+03  -0.03141   0.07853
     787.00   3.895975     0.1617E+03  -0.02423   0.06058
     789.00   3.897077     0.1611E+03  -0.02586   0.06464
     791.00   3.898176     0.1577E+03  -0.03521   0.08802
     793.00   3.899273     0.1585E+03  -0.03290   0.08226
     795.00   3.900367     0.1584E+03  -0.03318   0.08295
     797.00   3.901458     0.1624E+03  -0.02251   0.05627
     799.00   3.902547     0.1625E+03  -0.02224   0.05561
     801.00   3.903632     0.1661E+03  -0.01277   0.03193
     803.00   3.904716     0.1668E+03  -0.01095   0.02738
     805.00   3.905796     0.1661E+03  -0.01266   0.03165
     807.00   3.906873     0.1683E+03  -0.00698   0.01744
     809.00   3.907948     0.1671E+03  -0.01008   0.02520
     811.00   3.909021     0.1681E+03  -0.00753   0.01881
     813.00   3.910090     0.1705E+03  -0.00144   0.00361
     815.00   3.911158     0.1711E+03   0.00021  -0.00053
     817.00   3.912222     0.1712E+03   0.00051  -0.00129
     819.00   3.913284     0.1681E+03  -0.00748   0.01871
     821.00   3.914343     0.1663E+03  -0.01212   0.03031
     823.00   3.915400     0.1667E+03  -0.01116   0.02791
     825.00   3.916454     0.1667E+03  -0.01120   0.02800
     827.00   3.917506     0.1674E+03  -0.00924   0.02310
     829.00   3.918555     0.1661E+03  -0.01273   0.03183
     831.00   3.919601     0.1628E+03  -0.02146   0.05364
     833.00   3.920645     0.1615E+03  -0.02501   0.06253
     835.00   3.921686     0.1617E+03  -0.02444   0.06110
     837.00   3.922725     0.1621E+03  -0.02335   0.05837
     839.00   3.923762     0.1582E+03  -0.03384   0.08459
     841.00   3.924796     0.1619E+03  -0.02392   0.05979
     843.00   3.925828     0.1580E+03  -0.03440   0.08599
     845.00   3.926857     0.1550E+03  -0.04286   0.10714
     847.00   3.927883     0.1538E+03  -0.04600   0.11499
     849.00   3.928908     0.1555E+03  -0.04119   0.10298
     851.00   3.929929     0.1497E+03  -0.05796   0.14489
     853.00   3.930949     0.1550E+03  -0.04285   0.10712
     855.00   3.931966     0.1470E+03  -0.06572   0.16430
     857.00   3.932981     0.1577E+03  -0.03513   0.08782
     859.00   3.933993     0.1563E+03  -0.03899   0.09747
     861.00   3.935003     0.1573E+03  -0.03626   0.09066
     863.00   3.936011     0.1592E+03  -0.03112   0.07781
     865.00   3.937016     0.1597E+03  -0.02969   0.07422
     867.00   3.938019     0.1493E+03  -0.05900   0.14751
     869.00   3.939020     0.1566E+03  -0.03816   0.09541
     871.00   3.940018     0.1599E+03  -0.02914   0.07285
     873.00   3.941014     0.1604E+03  -0.02779   0.06948
     875.00   3.942008     0.1590E+03  -0.03171   0.07927
     877.00   3.943000     0.1605E+03  -0.02762   0.06905
     879.00   3.943989     0.1612E+03  -0.02563   0.06406
     881.00   3.944976     0.1588E+03  -0.03227   0.08067
     883.00   3.945961     0.1598E+03  -0.02940   0.07351
     885.00   3.946943     0.1591E+03  -0.03137   0.07842
     887.00   3.947924     0.1553E+03  -0.04199   0.10498
     889.00   3.948902     0.1568E+03  -0.03772   0.09429
     891.00   3.949878     0.1576E+03  -0.03555   0.08889
     893.00   3.950851     0.1558E+03  -0.04061   0.10153
     895.00   3.951823     0.1556E+03  -0.04091   0.10228
     897.00   3.952792     0.1560E+03  -0.03990   0.09974
     899.00   3.953760     0.1562E+03  -0.03945   0.09862
     901.00   3.954725     0.1523E+03  -0.05022   0.12555
     903.00   3.955688     0.1563E+03  -0.03897   0.09744
     905.00   3.956649     0.1588E+03  -0.03220   0.08050
     907.00   3.957607     0.1581E+03  -0.03415   0.08538
     909.00   3.958564     0.1552E+03  -0.04210   0.10525
     911.00   3.959518     0.1564E+03  -0.03868   0.09670
     913.00   3.960471     0.1577E+03  -0.03526   0.08815
     915.00   3.961421     0.1571E+03  -0.03689   0.09222
     917.00   3.962369     0.1566E+03  -0.03820   0.09551
     919.00   3.963315     0.1571E+03  -0.03678   0.09196
     921.00   3.964260     0.1537E+03  -0.04638   0.11595
     923.00   3.965202     0.1526E+03  -0.04961   0.12402
     925.00   3.966142     0.1518E+03  -0.05169   0.12923
     927.00   3.967080     0.1527E+03  -0.04934   0.12334
     929.00   3.968016     0.1512E+03  -0.05364   0.13410
     931.00   3.968950     0.1516E+03  -0.05225   0.13062
     933.00   3.969882     0.1515E+03  -0.05259   0.13149
     935.00   3.970812     0.1511E+03  -0.05372   0.13429
     937.00   3.971740     0.1492E+03  -0.05941   0.14852
     939.00   3.972666     0.1509E+03  -0.05424   0.13560
     941.00   3.973590     0.1486E+03  -0.06102   0.15255
     943.00   3.974512     0.1506E+03  -0.05531   0.13828
     945.00   3.975432     0.1490E+03  -0.06000   0.15001
     947.00   3.976350     0.1508E+03  -0.05476   0.13691
     949.00   3.977266     0.1508E+03  -0.05476   0.13689
     951.00   3.978180     0.1493E+03  -0.05900   0.14751
     953.00   3.979093     0.1497E+03  -0.05783   0.14457
     955.00   3.980003     0.1473E+03  -0.06473   0.16182
     957.00   3.980912     0.1484E+03  -0.06155   0.15388
     959.00   3.981819     0.1497E+03  -0.05778   0.14446
     961.00   3.982723     0.1483E+03  -0.06205   0.15511
     963.00   3.983626     0.1486E+03  -0.06105   0.15263
     965.00   3.984527     0.1467E+03  -0.06664   0.16661
     967.00   3.985426     0.1468E+03  -0.06639   0.16596
     969.00   3.986324     0.1479E+03  -0.06313   0.15782
     971.00   3.987219     0.1467E+03  -0.06654   0.16634
     973.00   3.988113     0.1459E+03  -0.06901   0.17253
     975.00   3.989005     0.1455E+03  -0.07025   0.17563
     977.00   3.989895     0.1456E+03  -0.06976   0.17441
     979.00   3.990783     0.1442E+03  -0.07409   0.18522
     981.00   3.991669     0.1463E+03  -0.06772   0.16929
     983.00   3.992553     0.1455E+03  -0.07016   0.17540
     985.00   3.993436     0.1459E+03  -0.06908   0.17271
     987.00   3.994317     0.1449E+03  -0.07193   0.17982
     989.00   3.995196     0.1445E+03  -0.07314   0.18285
     991.00   3.996074     0.1442E+03  -0.07415   0.18537
     993.00   3.996949     0.1443E+03  -0.07368   0.18421
     995.00   3.997823     0.1443E+03  -0.07378   0.18446
     997.00   3.998695     0.1442E+03  -0.07413   0.18531
     999.00   3.999566     0.1438E+03  -0.07542   0.18855
    1003.00   4.001301     0.1427E+03  -0.07871   0.19677
    1008.00   4.003461     0.1413E+03  -0.08285   0.20713
    1013.00   4.005610     0.1416E+03  -0.08188   0.20471
    1018.00   4.007748     0.1401E+03  -0.08659   0.21646
    1023.00   4.009875     0.1399E+03  -0.08728   0.21819
    1028.00   4.011993     0.1397E+03  -0.08797   0.21992
    1033.00   4.014100     0.1378E+03  -0.09379   0.23447
    1038.00   4.016197     0.1370E+03  -0.09636   0.24091
    1043.00   4.018284     0.1372E+03  -0.09568   0.23920
    1048.00   4.020361     0.1361E+03  -0.09929   0.24823
    1053.00   4.022429     0.1357E+03  -0.10033   0.25084
    1058.00   4.024486     0.1342E+03  -0.10535   0.26338
    1063.00   4.026533     0.1335E+03  -0.10755   0.26889
    1068.00   4.028571     0.1318E+03  -0.11314   0.28286
    1073.00   4.030600     0.1318E+03  -0.11302   0.28255
    1078.00   4.032619     0.1307E+03  -0.11676   0.29189
    1083.00   4.034628     0.1290E+03  -0.12241   0.30603
    1088.00   4.036629     0.1284E+03  -0.12451   0.31128
    1093.00   4.038620     0.1279E+03  -0.12612   0.31530
    1098.00   4.040603     0.1263E+03  -0.13159   0.32898
    1103.00   4.042576     0.1260E+03  -0.13278   0.33194
    1108.00   4.044539     0.1251E+03  -0.13592   0.33979
    1113.00   4.046495     0.1245E+03  -0.13799   0.34497
    1118.00   4.048442     0.1236E+03  -0.14117   0.35293
    1123.00   4.050380     0.1234E+03  -0.14158   0.35396
    1128.00   4.052309     0.1223E+03  -0.14579   0.36449
    1133.00   4.054230     0.1220E+03  -0.14664   0.36661
    1138.00   4.056142     0.1212E+03  -0.14954   0.37385
    1143.00   4.058046     0.1202E+03  -0.15319   0.38297
    1148.00   4.059942     0.1210E+03  -0.15038   0.37596
    1153.00   4.061830     0.1207E+03  -0.15143   0.37858
    1158.00   4.063708     0.1195E+03  -0.15563   0.38908
    1163.00   4.065579     0.1181E+03  -0.16069   0.40172
    1168.00   4.067443     0.1180E+03  -0.16102   0.40255
    1173.00   4.069298     0.1184E+03  -0.15961   0.39902
    1178.00   4.071145     0.1167E+03  -0.16585   0.41463
    1183.00   4.072985     0.1160E+03  -0.16867   0.42167
    1188.00   4.074817     0.1147E+03  -0.17339   0.43348
    1193.00   4.076640     0.1160E+03  -0.16865   0.42162
    1198.00   4.078457     0.1130E+03  -0.17999   0.44997
    1203.00   4.080266     0.1143E+03  -0.17482   0.43706
    1208.00   4.082067     0.1134E+03  -0.17852   0.44630
    1213.00   4.083861     0.1134E+03  -0.17860   0.44650
    1218.00   4.085648     0.1133E+03  -0.17864   0.44661
    1223.00   4.087426     0.1127E+03  -0.18127   0.45317
    1228.00   4.089198     0.1119E+03  -0.18414   0.46036
    1233.00   4.090963     0.1114E+03  -0.18624   0.46560
    1238.00   4.092721     0.1110E+03  -0.18791   0.46977
    1243.00   4.094471     0.1100E+03  -0.19153   0.47883
    1248.00   4.096214     0.1099E+03  -0.19217   0.48044
    1253.00   4.097951     0.1090E+03  -0.19568   0.48920
    1258.00   4.099681     0.1086E+03  -0.19705   0.49262
    1263.00   4.101403     0.1081E+03  -0.19912   0.49780
    1268.00   4.103119     0.1073E+03  -0.20227   0.50568
    1273.00   4.104828     0.1072E+03  -0.20271   0.50678
    1278.00   4.106531     0.1071E+03  -0.20328   0.50819
    1283.00   4.108227     0.1043E+03  -0.21473   0.53683
    1288.00   4.109916     0.1055E+03  -0.20998   0.52496
    1293.00   4.111598     0.1046E+03  -0.21366   0.53414
    1298.00   4.113275     0.1051E+03  -0.21157   0.52892
    1303.00   4.114944     0.1041E+03  -0.21570   0.53925
    1308.00   4.116608     0.1041E+03  -0.21556   0.53890
    1313.00   4.118265     0.1026E+03  -0.22202   0.55504
    1318.00   4.119915     0.1022E+03  -0.22357   0.55892
    1323.00   4.121560     0.1022E+03  -0.22352   0.55881
    1328.00   4.123198     0.1009E+03  -0.22924   0.57310
    1333.00   4.124830     0.1010E+03  -0.22859   0.57147
    1338.00   4.126456     0.1003E+03  -0.23176   0.57941
    1343.00   4.128076     0.1004E+03  -0.23139   0.57847
    1348.00   4.129690     0.9974E+02  -0.23417   0.58542
    1353.00   4.131298     0.9928E+02  -0.23617   0.59042
    1358.00   4.132900     0.9807E+02  -0.24150   0.60376
    1363.00   4.134496     0.9774E+02  -0.24298   0.60744
    1368.00   4.136086     0.9806E+02  -0.24154   0.60385
    1373.00   4.137671     0.9826E+02  -0.24065   0.60164
    1378.00   4.139249     0.9799E+02  -0.24187   0.60468
    1383.00   4.140822     0.9790E+02  -0.24227   0.60566
    1388.00   4.142389     0.9703E+02  -0.24614   0.61536
    1393.00   4.143951     0.9296E+02  -0.26475   0.66189
    1398.00   4.145507     0.9319E+02  -0.26369   0.65923
    1403.00   4.147058     0.9233E+02  -0.26769   0.66922
    1408.00   4.148602     0.9280E+02  -0.26549   0.66373
    1413.00   4.150142     0.9202E+02  -0.26916   0.67289
    1418.00   4.151676     0.9246E+02  -0.26711   0.66778
    1423.00   4.153205     0.9161E+02  -0.27111   0.67777
    1428.00   4.154728     0.9073E+02  -0.27529   0.68824
    1433.00   4.156246     0.9202E+02  -0.26915   0.67287
    1438.00   4.157759     0.9232E+02  -0.26775   0.66938
    1443.00   4.159266     0.9075E+02  -0.27519   0.68798
    1448.00   4.160769     0.9202E+02  -0.26917   0.67292
    1453.00   4.162266     0.9122E+02  -0.27298   0.68245
    1457.00   4.163460     0.9155E+02  -0.27137   0.67842
    1462.00   4.164948     0.8925E+02  -0.28245   0.70612
    1468.00   4.166726     0.8945E+02  -0.28145   0.70363
    1473.00   4.168202     0.8874E+02  -0.28493   0.71232
    1478.00   4.169674     0.8924E+02  -0.28247   0.70618
    1483.00   4.171141     0.8947E+02  -0.28136   0.70340
    1488.00   4.172603     0.8883E+02  -0.28447   0.71117
    1493.00   4.174060     0.9037E+02  -0.27703   0.69256
    1498.00   4.175512     0.8983E+02  -0.27964   0.69910
    1503.00   4.176959     0.8893E+02  -0.28399   0.70997
    1508.00   4.178401     0.8900E+02  -0.28365   0.70913
    1513.00   4.179839     0.9027E+02  -0.27750   0.69375
    1518.00   4.181272     0.9042E+02  -0.27677   0.69193
    1523.00   4.182700     0.9029E+02  -0.27740   0.69350
    1528.00   4.184123     0.9071E+02  -0.27537   0.68843
    1533.00   4.185542     0.9040E+02  -0.27686   0.69215
    1538.00   4.186956     0.8938E+02  -0.28180   0.70450
    1543.00   4.188366     0.8989E+02  -0.27935   0.69837
    1548.00   4.189771     0.9002E+02  -0.27870   0.69675
    1553.00   4.191172     0.8948E+02  -0.28135   0.70337
    1558.00   4.192567     0.8745E+02  -0.29127   0.72818
    1563.00   4.193959     0.8849E+02  -0.28614   0.71536
    1568.00   4.195346     0.8807E+02  -0.28824   0.72059
    1573.00   4.196729     0.8912E+02  -0.28308   0.70771
    1578.00   4.198107     0.8354E+02  -0.31116   0.77790
    1583.00   4.199481     0.8576E+02  -0.29977   0.74943
    1588.00   4.200850     0.8543E+02  -0.30145   0.75362
    1593.00   4.202216     0.8740E+02  -0.29152   0.72881
    1598.00   4.203577     0.8832E+02  -0.28701   0.71752
    1605.00   4.205475     0.8569E+02  -0.30014   0.75036
    1615.00   4.208173     0.8680E+02  -0.29451   0.73628
    1625.00   4.210854     0.8448E+02  -0.30628   0.76569
    1635.00   4.213518     0.8607E+02  -0.29821   0.74552
    1645.00   4.216166     0.8297E+02  -0.31410   0.78526
    1655.00   4.218798     0.8393E+02  -0.30915   0.77287
    1665.00   4.221415     0.8147E+02  -0.32207   0.80517
    1675.00   4.224015     0.8120E+02  -0.32349   0.80873
    1685.00   4.226600     0.8016E+02  -0.32908   0.82271
    1695.00   4.229170     0.7918E+02  -0.33441   0.83602
    1705.00   4.231725     0.7750E+02  -0.34375   0.85938
    1715.00   4.234264     0.7613E+02  -0.35149   0.87872
    1725.00   4.236789     0.7457E+02  -0.36050   0.90124
    1735.00   4.239300     0.7243E+02  -0.37316   0.93290
    1745.00   4.241796     0.7162E+02  -0.37804   0.94511
    1755.00   4.244277     0.7052E+02  -0.38473   0.96183
    1765.00   4.246745     0.6911E+02  -0.39352   0.98379
    1775.00   4.249198     0.6761E+02  -0.40301   1.00752
    1785.00   4.251638     0.6669E+02  -0.40899   1.02246
    1795.00   4.254065     0.6531E+02  -0.41808   1.04520
    1805.00   4.256477     0.6393E+02  -0.42736   1.06839
    1815.00   4.258877     0.6269E+02  -0.43588   1.08970
    1825.00   4.261263     0.6178E+02  -0.44219   1.10548
    1835.00   4.263636     0.6081E+02  -0.44905   1.12261
    1845.00   4.265996     0.5959E+02  -0.45786   1.14464
    1855.00   4.268344     0.5897E+02  -0.46245   1.15612
    1865.00   4.270679     0.5763E+02  -0.47239   1.18098
    1875.00   4.273001     0.5628E+02  -0.48267   1.20667
    1885.00   4.275311     0.5585E+02  -0.48605   1.21511
    1895.00   4.277609     0.5401E+02  -0.50058   1.25146
    1905.00   4.279895     0.5393E+02  -0.50120   1.25299
    1915.00   4.282169     0.5279E+02  -0.51053   1.27632
    1925.00   4.284431     0.5186E+02  -0.51819   1.29546
    1935.00   4.286681     0.5048E+02  -0.52995   1.32487
    1945.00   4.288919     0.4921E+02  -0.54103   1.35258
    1955.00   4.291147     0.4886E+02  -0.54410   1.36026
    1965.00   4.293363     0.4796E+02  -0.55221   1.38052
    1975.00   4.295567     0.4679E+02  -0.56289   1.40722
    1985.00   4.297760     0.4613E+02  -0.56909   1.42272
    1995.00   4.299943     0.4547E+02  -0.57534   1.43836
    2005.00   4.302114     0.4505E+02  -0.57935   1.44837
    2015.00   4.304275     0.4438E+02  -0.58586   1.46464
    2025.00   4.306425     0.4335E+02  -0.59608   1.49021
    2035.00   4.308564     0.4268E+02  -0.60286   1.50716
    2045.00   4.310693     0.4235E+02  -0.60618   1.51545
    2055.00   4.312812     0.4162E+02  -0.61373   1.53432
    2065.00   4.314920     0.4087E+02  -0.62162   1.55405
    2075.00   4.317018     0.4033E+02  -0.62738   1.56845
    2085.00   4.319106     0.3970E+02  -0.63424   1.58561
    2095.00   4.321184     0.3895E+02  -0.64250   1.60625
    2105.00   4.323252     0.3861E+02  -0.64633   1.61582
    2115.00   4.325311     0.3794E+02  -0.65398   1.63496
    2125.00   4.327359     0.3735E+02  -0.66077   1.65194
    2135.00   4.329398     0.3692E+02  -0.66574   1.66436
    2145.00   4.331428     0.3634E+02  -0.67270   1.68176
    2155.00   4.333447     0.3577E+02  -0.67958   1.69896
    2165.00   4.335458     0.3501E+02  -0.68882   1.72206
    2175.00   4.337460     0.3456E+02  -0.69447   1.73617
    2185.00   4.339452     0.3410E+02  -0.70026   1.75066
    2195.00   4.341434     0.3365E+02  -0.70602   1.76506
    2205.00   4.343409     0.3287E+02  -0.71622   1.79056
    2215.00   4.345374     0.3268E+02  -0.71872   1.79681
    2225.00   4.347330     0.3195E+02  -0.72861   1.82152
    2235.00   4.349277     0.3153E+02  -0.73437   1.83593
    2245.00   4.351216     0.3106E+02  -0.74079   1.85198
    2255.00   4.353147     0.3065E+02  -0.74664   1.86659
    2265.00   4.355068     0.3004E+02  -0.75534   1.88834
    2275.00   4.356981     0.2976E+02  -0.75936   1.89841
    2285.00   4.358886     0.2917E+02  -0.76809   1.92021
    2295.00   4.360783     0.2412E+02  -0.85076   2.12689
    2305.00   4.362671     0.2628E+02  -0.81337   2.03343
    2315.00   4.364551     0.2615E+02  -0.81560   2.03900
    2325.00   4.366423     0.2238E+02  -0.88320   2.20800
    2335.00   4.368287     0.2419E+02  -0.84936   2.12340
    2345.00   4.370143     0.2274E+02  -0.87631   2.19077
    2355.00   4.371991     0.2082E+02  -0.91452   2.28631
    2365.00   4.373831     0.2246E+02  -0.88165   2.20412
    2375.00   4.375664     0.2130E+02  -0.90466   2.26166
    2385.00   4.377488     0.1968E+02  -0.93899   2.34747
    2395.00   4.379306     0.2096E+02  -0.91159   2.27897
    2405.00   4.381115     0.2032E+02  -0.92514   2.31286
    2415.00   4.382917     0.1873E+02  -0.96058   2.40145
    2425.00   4.384712     0.1976E+02  -0.93729   2.34322
    2435.00   4.386499     0.1908E+02  -0.95243   2.38108
    2445.00   4.388279     0.1891E+02  -0.95632   2.39079
    2455.00   4.390052     0.1839E+02  -0.96855   2.42137
    2465.00   4.391817     0.1848E+02  -0.96627   2.41567
    2475.00   4.393575     0.1800E+02  -0.97778   2.44446
    2485.00   4.395327     0.1616E+02  -1.02455   2.56136
    2495.00   4.397071     0.1580E+02  -1.03450   2.58626
    2505.00   4.398808     0.1603E+02  -1.02823   2.57056
    2515.00   4.400538     0.1527E+02  -1.04909   2.62272
    2525.00   4.402262     0.1565E+02  -1.03854   2.59636
    2535.00   4.403978     0.1569E+02  -1.03741   2.59352
    2545.00   4.405688     0.1551E+02  -1.04236   2.60589
    2555.00   4.407391     0.1547E+02  -1.04347   2.60866
    2565.00   4.409087     0.1557E+02  -1.04070   2.60175
    2575.00   4.410777     0.1567E+02  -1.03809   2.59524
    2585.00   4.412460     0.1525E+02  -1.04989   2.62474
    2595.00   4.414137     0.1531E+02  -1.04808   2.62020
    2605.00   4.415808     0.1530E+02  -1.04833   2.62083
    2615.00   4.417472     0.1505E+02  -1.05540   2.63851
    2625.00   4.419129     0.1482E+02  -1.06228   2.65569
    2635.00   4.420781     0.1483E+02  -1.06198   2.65494
    2645.00   4.422426     0.1470E+02  -1.06576   2.66440
    2655.00   4.424065     0.1450E+02  -1.07155   2.67886
    2665.00   4.425697     0.1427E+02  -1.07852   2.69630
    2675.00   4.427324     0.1438E+02  -1.07524   2.68809
    2685.00   4.428945     0.1422E+02  -1.08001   2.70004
    2695.00   4.430559     0.1397E+02  -1.08781   2.71953
    2705.00   4.432167     0.1394E+02  -1.08876   2.72190
    2715.00   4.433770     0.1380E+02  -1.09302   2.73255
    2725.00   4.435367     0.1371E+02  -1.09594   2.73985
    2735.00   4.436957     0.1348E+02  -1.10326   2.75815
    2745.00   4.438542     0.1344E+02  -1.10475   2.76188
    2755.00   4.440122     0.1333E+02  -1.10809   2.77023
    2765.00   4.441695     0.1316E+02  -1.11366   2.78416
    2775.00   4.443263     0.1299E+02  -1.11932   2.79831
    2785.00   4.444825     0.1293E+02  -1.12160   2.80400
    2795.00   4.446382     0.1285E+02  -1.12414   2.81035
    2805.00   4.447933     0.1271E+02  -1.12899   2.82249
    2815.00   4.449478     0.1254E+02  -1.13474   2.83684
    2825.00   4.451018     0.1244E+02  -1.13827   2.84568
    2835.00   4.452553     0.1235E+02  -1.14142   2.85356
    2845.00   4.454082     0.1220E+02  -1.14667   2.86666
    2855.00   4.455606     0.1207E+02  -1.15128   2.87820
    2865.00   4.457125     0.1195E+02  -1.15563   2.88908
    2875.00   4.458638     0.1182E+02  -1.16038   2.90096
    2885.00   4.460146     0.1172E+02  -1.16426   2.91066
    2895.00   4.461648     0.1160E+02  -1.16864   2.92160
    2905.00   4.463146     0.1147E+02  -1.17341   2.93352
    2915.00   4.464639     0.1137E+02  -1.17747   2.94368
    2925.00   4.466126     0.1119E+02  -1.18413   2.96032
    2935.00   4.467608     0.1114E+02  -1.18634   2.96584
    2945.00   4.469085     0.1100E+02  -1.19179   2.97948
    2955.00   4.470557     0.1089E+02  -1.19602   2.99005
    2965.00   4.472025     0.1080E+02  -1.19980   2.99951
    2975.00   4.473487     0.1068E+02  -1.20430   3.01076
    2985.00   4.474944     0.1056E+02  -1.20936   3.02339
    2995.00   4.476397     0.1045E+02  -1.21413   3.03532
    3005.00   4.477844     0.1034E+02  -1.21851   3.04627
    3015.00   4.479287     0.1026E+02  -1.22202   3.05504
    3025.00   4.480725     0.1014E+02  -1.22696   3.06740
    3035.00   4.482159     0.1002E+02  -1.23230   3.08076
    3045.00   4.483587     0.9956E+01  -1.23496   3.08740
    3055.00   4.485011     0.9853E+01  -1.23949   3.09873
    3065.00   4.486430     0.9754E+01  -1.24389   3.10971
    3075.00   4.487845     0.9674E+01  -1.24744   3.11860
    3085.00   4.489255     0.9557E+01  -1.25274   3.13185
    3095.00   4.490661     0.9473E+01  -1.25655   3.14139
    3105.00   4.492062     0.9398E+01  -1.26001   3.15002
    3115.00   4.493458     0.9263E+01  -1.26630   3.16575
    3125.00   4.494850     0.9203E+01  -1.26910   3.17275
    3135.00   4.496238     0.9115E+01  -1.27332   3.18329
    3145.00   4.497621     0.9021E+01  -1.27778   3.19444
    3155.00   4.499000     0.8919E+01  -1.28275   3.20688
    3165.00   4.500374     0.8827E+01  -1.28725   3.21813
    3175.00   4.501744     0.8752E+01  -1.29093   3.22733
    3185.00   4.503109     0.8663E+01  -1.29539   3.23849
    3195.00   4.504471     0.8583E+01  -1.29943   3.24857
    3210.00   4.506505     0.8445E+01  -1.30645   3.26613
    3230.00   4.509202     0.8270E+01  -1.31552   3.28881
    3250.00   4.511883     0.8102E+01  -1.32446   3.31116
    3270.00   4.514548     0.7932E+01  -1.33368   3.33420
    3290.00   4.517196     0.7756E+01  -1.34343   3.35857
    3310.00   4.519828     0.7605E+01  -1.35192   3.37981
    3330.00   4.522444     0.7441E+01  -1.36139   3.40348
    3350.00   4.525045     0.7301E+01  -1.36967   3.42416
    3370.00   4.527630     0.7145E+01  -1.37905   3.44763
    3390.00   4.530200     0.6989E+01  -1.38864   3.47160
    3410.00   4.532754     0.6838E+01  -1.39812   3.49529
    3430.00   4.535294     0.6712E+01  -1.40621   3.51554
    3450.00   4.537819     0.6577E+01  -1.41503   3.53757
    3470.00   4.540329     0.6438E+01  -1.42429   3.56072
    3490.00   4.542826     0.6307E+01  -1.43323   3.58308
    3510.00   4.545307     0.6182E+01  -1.44195   3.60487
    3530.00   4.547775     0.6046E+01  -1.45156   3.62890
    3550.00   4.550228     0.5930E+01  -1.45999   3.64998
    3570.00   4.552669     0.5807E+01  -1.46910   3.67276
    3590.00   4.555095     0.5691E+01  -1.47788   3.69470
    3610.00   4.557508     0.5584E+01  -1.48610   3.71525
    3630.00   4.559907     0.5471E+01  -1.49497   3.73743
    3650.00   4.562293     0.5353E+01  -1.50449   3.76123
    3670.00   4.564666     0.5243E+01  -1.51344   3.78359
    3690.00   4.567026     0.5127E+01  -1.52320   3.80799
    3710.00   4.569374     0.5021E+01  -1.53223   3.83057
    3730.00   4.571709     0.4936E+01  -1.53965   3.84912
    3750.00   4.574031     0.4820E+01  -1.54997   3.87491
    3770.00   4.576342     0.4746E+01  -1.55669   3.89172
    3790.00   4.578639     0.4652E+01  -1.56545   3.91362
    3810.00   4.580925     0.4566E+01  -1.57355   3.93387
    3830.00   4.583199     0.4483E+01  -1.58146   3.95364
    3850.00   4.585461     0.4399E+01  -1.58967   3.97419
    3870.00   4.587711     0.4304E+01  -1.59918   3.99796
    3890.00   4.589950     0.4227E+01  -1.60702   4.01754
    3910.00   4.592176     0.4150E+01  -1.61495   4.03738
    3930.00   4.594393     0.4073E+01  -1.62319   4.05797
    3950.00   4.596597     0.3985E+01  -1.63259   4.08147
    3970.00   4.598790     0.3915E+01  -1.64034   4.10084
    3990.00   4.600973     0.3828E+01  -1.65012   4.12529
    4010.00   4.603145     0.3766E+01  -1.65717   4.14292
    4030.00   4.605305     0.3703E+01  -1.66451   4.16128
    4050.00   4.607455     0.3626E+01  -1.67358   4.18394
    4070.00   4.609594     0.3565E+01  -1.68094   4.20234
    4090.00   4.611723     0.3501E+01  -1.68880   4.22199
    4110.00   4.613842     0.3441E+01  -1.69638   4.24094
    4130.00   4.615950     0.3383E+01  -1.70371   4.25927
    4150.00   4.618048     0.3321E+01  -1.71175   4.27938
    4170.00   4.620136     0.3263E+01  -1.71942   4.29856
    4190.00   4.622214     0.3204E+01  -1.72740   4.31851
    4210.00   4.624282     0.3144E+01  -1.73556   4.33890
    4230.00   4.626340     0.3102E+01  -1.74139   4.35347
    4250.00   4.628389     0.3043E+01  -1.74970   4.37426
    4270.00   4.630428     0.2996E+01  -1.75647   4.39118
    4290.00   4.632457     0.2856E+01  -1.77725   4.44312
    4310.00   4.634478     0.2715E+01  -1.79926   4.49814
    4330.00   4.636488     0.2708E+01  -1.80048   4.50120
    4350.00   4.638489     0.2588E+01  -1.82008   4.55021
    4370.00   4.640481     0.2517E+01  -1.83219   4.58049
    4390.00   4.642465     0.2464E+01  -1.84141   4.60353
    4410.00   4.644439     0.2366E+01  -1.85910   4.64776
    4430.00   4.646404     0.2330E+01  -1.86562   4.66405
    4450.00   4.648360     0.2287E+01  -1.87372   4.68430
    4470.00   4.650308     0.2206E+01  -1.88935   4.72337
    4490.00   4.652246     0.2203E+01  -1.88995   4.72487
    4510.00   4.654177     0.2147E+01  -1.90120   4.75300
    4530.00   4.656098     0.2091E+01  -1.91271   4.78176
    4550.00   4.658011     0.2080E+01  -1.91493   4.78731
    4570.00   4.659916     0.2055E+01  -1.92024   4.80061
    4590.00   4.661813     0.1989E+01  -1.93434   4.83586
    4610.00   4.663701     0.1992E+01  -1.93377   4.83442
    4630.00   4.665581     0.1953E+01  -1.94233   4.85582
    4650.00   4.667453     0.1933E+01  -1.94684   4.86709
    4670.00   4.669317     0.1920E+01  -1.94975   4.87438
    4690.00   4.671173     0.1884E+01  -1.95807   4.89517
    4710.00   4.673021     0.1852E+01  -1.96551   4.91378
    4730.00   4.674861     0.1852E+01  -1.96531   4.91328
    4750.00   4.676694     0.1811E+01  -1.97511   4.93777
    4770.00   4.678518     0.1787E+01  -1.98081   4.95202
    4790.00   4.680336     0.1770E+01  -1.98506   4.96266
    4810.00   4.682145     0.1727E+01  -1.99575   4.98937
    4830.00   4.683947     0.1731E+01  -1.99486   4.98714
    4850.00   4.685741     0.1699E+01  -2.00287   5.00718
    4870.00   4.687529     0.1666E+01  -2.01136   5.02840
    4890.00   4.689309     0.1644E+01  -2.01716   5.04290
    4910.00   4.691082     0.1624E+01  -2.02249   5.05622
    4930.00   4.692847     0.1598E+01  -2.02942   5.07356
    4950.00   4.694605     0.1572E+01  -2.03667   5.09168
    4970.00   4.696356     0.1560E+01  -2.04001   5.10003
    4990.00   4.698101     0.1538E+01  -2.04622   5.11555
    5010.00   4.699838     0.1518E+01  -2.05168   5.12919
    5030.00   4.701568     0.1499E+01  -2.05738   5.14346
    5050.00   4.703291     0.1467E+01  -2.06665   5.16662
    5070.00   4.705008     0.1455E+01  -2.07024   5.17559
    5090.00   4.706717     0.1437E+01  -2.07554   5.18886
    5110.00   4.708421     0.1411E+01  -2.08341   5.20851
    5130.00   4.710117     0.1401E+01  -2.08650   5.21624
    5150.00   4.711807     0.1377E+01  -2.09417   5.23543
    5170.00   4.713490     0.1371E+01  -2.09612   5.24029
    5190.00   4.715167     0.1345E+01  -2.10423   5.26056
    5210.00   4.716838     0.1331E+01  -2.10890   5.27224
    5230.00   4.718502     0.1309E+01  -2.11626   5.29064
    5250.00   4.720160     0.1298E+01  -2.11982   5.29954
    5270.00   4.721810     0.1291E+01  -2.12227   5.30567
    5290.00   4.723455     0.1262E+01  -2.13215   5.33037
    5310.00   4.725095     0.1246E+01  -2.13758   5.34395
    5330.00   4.726727     0.1234E+01  -2.14157   5.35392
    5350.00   4.728354     0.1220E+01  -2.14674   5.36685
    5370.00   4.729974     0.1206E+01  -2.15163   5.37908
    5390.00   4.731589     0.1193E+01  -2.15659   5.39148
    5410.00   4.733197     0.1178E+01  -2.16184   5.40461
    5430.00   4.734800     0.1157E+01  -2.16968   5.42419
    5450.00   4.736397     0.1151E+01  -2.17199   5.42997
    5470.00   4.737988     0.1133E+01  -2.17899   5.44749
    5490.00   4.739573     0.1120E+01  -2.18368   5.45919
    5510.00   4.741152     0.1106E+01  -2.18944   5.47360
    5530.00   4.742725     0.1106E+01  -2.18932   5.47331
    5550.00   4.744293     0.1078E+01  -2.20035   5.50087
    5570.00   4.745855     0.1075E+01  -2.20165   5.50412
    5590.00   4.747412     0.1057E+01  -2.20890   5.52225
    5610.00   4.748963     0.1049E+01  -2.21247   5.53117
    5630.00   4.750508     0.1030E+01  -2.22013   5.55033
    5650.00   4.752048     0.1024E+01  -2.22264   5.55660
    5670.00   4.753583     0.1012E+01  -2.22799   5.56996
    5690.00   4.755112     0.9943E+00  -2.23553   5.58881
    5710.00   4.756636     0.9893E+00  -2.23770   5.59426
    5730.00   4.758155     0.9769E+00  -2.24321   5.60804
    5750.00   4.759668     0.9653E+00  -2.24840   5.62101
    5770.00   4.761176     0.9525E+00  -2.25417   5.63541
    5790.00   4.762679     0.9452E+00  -2.25751   5.64378
    5810.00   4.764176     0.9309E+00  -2.26415   5.66037
    5830.00   4.765669     0.9208E+00  -2.26886   5.67216
    5850.00   4.767156     0.9106E+00  -2.27372   5.68431
    5870.00   4.768638     0.8969E+00  -2.28033   5.70082
    5890.00   4.770115     0.8873E+00  -2.28498   5.71245
    5910.00   4.771587     0.8777E+00  -2.28971   5.72427
    5930.00   4.773055     0.8683E+00  -2.29436   5.73590
    5950.00   4.774517     0.8564E+00  -2.30037   5.75092
    5970.00   4.775974     0.8488E+00  -2.30423   5.76058
    5990.00   4.777427     0.8389E+00  -2.30937   5.77341
    6010.00   4.778874     0.8291E+00  -2.31445   5.78613
    6030.00   4.780317     0.8193E+00  -2.31961   5.79901
    6050.00   4.781755     0.8077E+00  -2.32579   5.81448
    6070.00   4.783189     0.7987E+00  -2.33066   5.82666
    6090.00   4.784617     0.7893E+00  -2.33578   5.83945
    6110.00   4.786041     0.7792E+00  -2.34140   5.85349
    6130.00   4.787460     0.7716E+00  -2.34567   5.86417
    6150.00   4.788875     0.7633E+00  -2.35036   5.87590
    6170.00   4.790285     0.7556E+00  -2.35475   5.88688
    6190.00   4.791691     0.7466E+00  -2.35994   5.89985
    6210.00   4.793092     0.7387E+00  -2.36457   5.91143
    6230.00   4.794488     0.7289E+00  -2.37037   5.92592
    6250.00   4.795880     0.7194E+00  -2.37607   5.94016
    6270.00   4.797267     0.7113E+00  -2.38101   5.95254
    6290.00   4.798651     0.7037E+00  -2.38566   5.96415
    6310.00   4.800029     0.6953E+00  -2.39088   5.97721
    6330.00   4.801404     0.6890E+00  -2.39485   5.98712
    6350.00   4.802773     0.6802E+00  -2.40042   6.00105
    6370.00   4.804139     0.6740E+00  -2.40440   6.01099
    6390.00   4.805501     0.6648E+00  -2.41037   6.02593
    6420.00   4.807535     0.6541E+00  -2.41741   6.04352
    6460.00   4.810232     0.6389E+00  -2.42760   6.06899
    6500.00   4.812913     0.6248E+00  -2.43729   6.09322
    6540.00   4.815578     0.6108E+00  -2.44713   6.11784
    6580.00   4.818226     0.5978E+00  -2.45652   6.14131
    6620.00   4.820858     0.5842E+00  -2.46651   6.16626
    6660.00   4.823474     0.5714E+00  -2.47611   6.19026
    6700.00   4.826075     0.5590E+00  -2.48562   6.21405
    6740.00   4.828660     0.5465E+00  -2.49547   6.23868
    6780.00   4.831230     0.5347E+00  -2.50496   6.26240
    6820.00   4.833784     0.5230E+00  -2.51455   6.28638
    6860.00   4.836324     0.5119E+00  -2.52383   6.30957
    6900.00   4.838849     0.5007E+00  -2.53344   6.33359
    6940.00   4.841359     0.4901E+00  -2.54281   6.35702
    6980.00   4.843855     0.4797E+00  -2.55212   6.38030
    7020.00   4.846337     0.4693E+00  -2.56163   6.40408
    7060.00   4.848804     0.4595E+00  -2.57072   6.42680
    7100.00   4.851258     0.4498E+00  -2.58001   6.45001
    7140.00   4.853698     0.4405E+00  -2.58914   6.47284
    7180.00   4.856124     0.4312E+00  -2.59836   6.49590
    7220.00   4.858537     0.4223E+00  -2.60743   6.51859
    7260.00   4.860937     0.4135E+00  -2.61657   6.54143
    7300.00   4.863323     0.4050E+00  -2.62555   6.56387
    7340.00   4.865696     0.3967E+00  -2.63464   6.58660
    7380.00   4.868056     0.3887E+00  -2.64349   6.60873
    7420.00   4.870404     0.3805E+00  -2.65265   6.63162
    7460.00   4.872739     0.3728E+00  -2.66163   6.65407
    7500.00   4.875061     0.3654E+00  -2.67032   6.67580
    7540.00   4.877371     0.3580E+00  -2.67915   6.69788
    7580.00   4.879669     0.3511E+00  -2.68761   6.71902
    7620.00   4.881955     0.3441E+00  -2.69631   6.74077
    7660.00   4.884229     0.3374E+00  -2.70495   6.76239
    7700.00   4.886491     0.3307E+00  -2.71364   6.78410
    7740.00   4.888741     0.3243E+00  -2.72215   6.80537
    7780.00   4.890980     0.3180E+00  -2.73065   6.82663
    7820.00   4.893207     0.3118E+00  -2.73916   6.84791
    7860.00   4.895422     0.3058E+00  -2.74760   6.86899
    7900.00   4.897627     0.2999E+00  -2.75601   6.89003
    7940.00   4.899820     0.2942E+00  -2.76439   6.91099
    7980.00   4.902003     0.2886E+00  -2.77269   6.93173
    8020.00   4.904174     0.2831E+00  -2.78113   6.95282
    8060.00   4.906335     0.2778E+00  -2.78938   6.97345
    8100.00   4.908485     0.2726E+00  -2.79749   6.99372
    8140.00   4.910625     0.2675E+00  -2.80576   7.01439
    8180.00   4.912753     0.2626E+00  -2.81379   7.03448
    8220.00   4.914872     0.2577E+00  -2.82187   7.05468
    8260.00   4.916980     0.2530E+00  -2.82997   7.07492
    8300.00   4.919078     0.2484E+00  -2.83797   7.09493
    8340.00   4.921166     0.2438E+00  -2.84609   7.11522
    8380.00   4.923244     0.2393E+00  -2.85405   7.13513
    8420.00   4.925312     0.2351E+00  -2.86184   7.15460
    8460.00   4.927370     0.2308E+00  -2.86977   7.17442
    8500.00   4.929419     0.2267E+00  -2.87760   7.19401
    8540.00   4.931458     0.2227E+00  -2.88539   7.21347
    8580.00   4.933487     0.2187E+00  -2.89315   7.23288
    8620.00   4.935507     0.2149E+00  -2.90088   7.25220
    8660.00   4.937518     0.2111E+00  -2.90855   7.27138
    8700.00   4.939519     0.2074E+00  -2.91623   7.29057
    8740.00   4.941511     0.2038E+00  -2.92387   7.30968
    8780.00   4.943495     0.2002E+00  -2.93150   7.32874
    8820.00   4.945469     0.1967E+00  -2.93915   7.34786
    8860.00   4.947433     0.1934E+00  -2.94667   7.36666
    8900.00   4.949390     0.1900E+00  -2.95422   7.38554
    8940.00   4.951338     0.1868E+00  -2.96161   7.40402
    8980.00   4.953277     0.1836E+00  -2.96920   7.42299
    9020.00   4.955207     0.1805E+00  -2.97646   7.44116
    9060.00   4.957129     0.1775E+00  -2.98380   7.45950
    9100.00   4.959042     0.1744E+00  -2.99140   7.47851
    9140.00   4.960946     0.1716E+00  -2.99857   7.49641
    9180.00   4.962843     0.1687E+00  -3.00583   7.51458
    9220.00   4.964731     0.1660E+00  -3.01300   7.53250
    9260.00   4.966611     0.1632E+00  -3.02025   7.55062
    9300.00   4.968483     0.1606E+00  -3.02743   7.56858
    9340.00   4.970347     0.1579E+00  -3.03463   7.58657
    9380.00   4.972203     0.1554E+00  -3.04173   7.60433
    9420.00   4.974051     0.1528E+00  -3.04885   7.62212
    9460.00   4.975891     0.1503E+00  -3.05596   7.63991
    9500.00   4.977724     0.1479E+00  -3.06301   7.65752
    9540.00   4.979548     0.1456E+00  -3.07003   7.67507
    9580.00   4.981365     0.1432E+00  -3.07700   7.69251
    9620.00   4.983175     0.1409E+00  -3.08399   7.70998
    9660.00   4.984977     0.1387E+00  -3.09090   7.72725
    9700.00   4.986772     0.1365E+00  -3.09780   7.74451
    9740.00   4.988559     0.1343E+00  -3.10493   7.76233
    9780.00   4.990339     0.1323E+00  -3.11163   7.77908
    9820.00   4.992111     0.1302E+00  -3.11840   7.79600
    9860.00   4.993877     0.1282E+00  -3.12519   7.81298
    9900.00   4.995635     0.1262E+00  -3.13195   7.82988
    9940.00   4.997386     0.1243E+00  -3.13874   7.84685
    9980.00   4.999130     0.1223E+00  -3.14546   7.86364
   10020.00   5.000868     0.1205E+00  -3.15215   7.88038
   20000.00   5.301030     0.8132E-02  -4.32285  10.80714
   40000.00   5.602060     0.5236E-03  -5.51408  13.78520
   60000.00   5.778151     0.1041E-03  -6.21546  15.53866
   80000.00   5.903090     0.3301E-04  -6.71445  16.78613
  100000.00   6.000000     0.1352E-04  -7.10210  17.75525
  120000.00   6.079181     0.6514E-05  -7.41918  18.54795
  140000.00   6.146128     0.3512E-05  -7.68744  19.21860
  160000.00   6.204120     0.2056E-05  -7.91995  19.79988
