age =   13.0    [Fe/H] =    0.25

wavele(nm) log wave(A)   Hlam       log(Hlam/Hlam(V))  Hlam(mag(V)) 
      90.50   2.956649     0.5462E-14 -16.32602  40.81504
      91.50   2.961421     0.1100E-12 -15.02192  37.55481
      92.50   2.966142     0.1249E-11 -13.96692  34.91731
      93.50   2.970812     0.1787E-11 -13.81129  34.52822
      94.50   2.975432     0.2725E-11 -13.62802  34.07005
      95.50   2.980003     0.4155E-11 -13.44486  33.61215
      96.50   2.984527     0.6444E-11 -13.25420  33.13550
      97.50   2.989005     0.8956E-11 -13.11129  32.77822
      98.50   2.993436     0.1295E-10 -12.95107  32.37768
      99.50   2.997823     0.1817E-10 -12.80399  32.00997
     100.50   3.002166     0.2750E-10 -12.62412  31.56031
     101.50   3.006466     0.3893E-10 -12.47312  31.18280
     102.50   3.010724     0.4766E-10 -12.38526  30.96314
     103.50   3.014940     0.7751E-10 -12.17402  30.43504
     104.50   3.019116     0.1098E-09 -12.02282  30.05705
     105.50   3.023252     0.1417E-09 -11.91206  29.78016
     106.50   3.027350     0.1997E-09 -11.76307  29.40767
     107.50   3.031409     0.2741E-09 -11.62547  29.06367
     108.50   3.035430     0.3733E-09 -11.49127  28.72818
     109.50   3.039414     0.4730E-09 -11.38853  28.47132
     110.50   3.043362     0.7366E-09 -11.19615  27.99036
     111.50   3.047275     0.1025E-08 -11.05272  27.63181
     112.50   3.051152     0.1429E-08 -10.90847  27.27118
     113.50   3.054996     0.2043E-08 -10.75313  26.88282
     114.50   3.058805     0.2734E-08 -10.62652  26.56631
     115.50   3.062582     0.3457E-08 -10.52469  26.31173
     116.50   3.066326     0.4623E-08 -10.39846  25.99614
     117.50   3.070038     0.6070E-08 -10.28018  25.70045
     118.50   3.073718     0.7396E-08 -10.19437  25.48592
     119.50   3.077368     0.8332E-08 -10.14265  25.35662
     120.50   3.080987     0.1019E-07 -10.05505  25.13762
     121.50   3.084576     0.6873E-08 -10.22623  25.56557
     122.50   3.088136     0.1543E-07  -9.87502  24.68756
     123.50   3.091667     0.2246E-07  -9.71199  24.27998
     124.50   3.095169     0.2823E-07  -9.61273  24.03182
     125.50   3.098644     0.3413E-07  -9.53029  23.82572
     126.50   3.102091     0.4063E-07  -9.45454  23.63634
     127.50   3.105510     0.4968E-07  -9.36722  23.41804
     128.50   3.108903     0.5722E-07  -9.30583  23.26457
     129.50   3.112270     0.7014E-07  -9.21742  23.04356
     130.50   3.115611     0.8090E-07  -9.15543  22.88859
     131.50   3.118926     0.1009E-06  -9.05963  22.64907
     132.50   3.122216     0.1129E-06  -9.01083  22.52709
     133.50   3.125481     0.1315E-06  -8.94435  22.36088
     134.50   3.128722     0.1604E-06  -8.85806  22.14516
     135.50   3.131939     0.1955E-06  -8.77216  21.93040
     136.50   3.135133     0.2224E-06  -8.71629  21.79072
     137.50   3.138303     0.2563E-06  -8.65462  21.63654
     138.50   3.141450     0.2957E-06  -8.59250  21.48126
     139.50   3.144574     0.3463E-06  -8.52388  21.30971
     140.50   3.147676     0.4259E-06  -8.43407  21.08517
     141.50   3.150756     0.5027E-06  -8.36212  20.90529
     142.50   3.153815     0.5965E-06  -8.28781  20.71952
     143.50   3.156852     0.7192E-06  -8.20654  20.51635
     144.20   3.158965     0.8723E-06  -8.12271  20.30678
     144.70   3.160469     0.8636E-06  -8.12706  20.31766
     145.50   3.162863     0.1007E-05  -8.06026  20.15066
     146.50   3.165838     0.1259E-05  -7.96349  19.90872
     147.50   3.168792     0.1467E-05  -7.89687  19.74219
     148.50   3.171726     0.1656E-05  -7.84436  19.61089
     149.50   3.174641     0.2076E-05  -7.74611  19.36528
     150.50   3.177536     0.2516E-05  -7.66271  19.15677
     151.20   3.179552     0.2298E-05  -7.70205  19.25513
     151.70   3.180986     0.2715E-05  -7.62970  19.07425
     152.50   3.183270     0.5420E-05  -7.32941  18.32353
     153.50   3.186108     0.8786E-05  -7.11962  17.79904
     154.50   3.188928     0.7620E-05  -7.18143  17.95358
     155.50   3.191730     0.1242E-04  -6.96918  17.42294
     156.50   3.194514     0.1223E-04  -6.97613  17.44033
     157.50   3.197281     0.2634E-04  -6.64283  16.60708
     158.50   3.200029     0.3195E-04  -6.55886  16.39714
     159.50   3.202761     0.3775E-04  -6.48652  16.21630
     160.50   3.205475     0.4009E-04  -6.46037  16.15092
     161.50   3.208173     0.4383E-04  -6.42160  16.05400
     162.50   3.210853     0.4989E-04  -6.36535  15.91336
     163.50   3.213518     0.6283E-04  -6.26520  15.66301
     164.50   3.216166     0.9035E-04  -6.10745  15.26862
     165.50   3.218798     0.6453E-04  -6.25362  15.63406
     166.50   3.221414     0.1099E-03  -6.02253  15.05632
     167.20   3.223236     0.7778E-04  -6.17251  15.43129
     167.70   3.224533     0.3131E-03  -5.56768  13.91919
     168.50   3.226600     0.3518E-03  -5.51709  13.79273
     169.50   3.229170     0.4532E-03  -5.40708  13.51771
     170.50   3.231725     0.4846E-03  -5.37804  13.44510
     171.50   3.234264     0.4651E-03  -5.39581  13.48953
     172.50   3.236789     0.6390E-03  -5.25786  13.14466
     173.50   3.239300     0.7711E-03  -5.17630  12.94076
     174.50   3.241796     0.1095E-02  -5.02402  12.56004
     175.50   3.244277     0.1452E-02  -4.90136  12.25341
     176.50   3.246745     0.1415E-02  -4.91266  12.28166
     177.50   3.249198     0.1486E-02  -4.89139  12.22846
     178.50   3.251638     0.2079E-02  -4.74555  11.86389
     179.50   3.254065     0.2371E-02  -4.68855  11.72136
     180.50   3.256477     0.2784E-02  -4.61866  11.54665
     181.50   3.258877     0.2571E-02  -4.65323  11.63307
     182.50   3.261263     0.3471E-02  -4.52295  11.30738
     183.50   3.263636     0.3540E-02  -4.51438  11.28596
     184.50   3.265996     0.2794E-02  -4.61722  11.54304
     185.50   3.268344     0.3842E-02  -4.47878  11.19694
     186.50   3.270679     0.4649E-02  -4.39604  10.99010
     187.50   3.273001     0.5051E-02  -4.36002  10.90006
     188.50   3.275311     0.5519E-02  -4.32153  10.80381
     189.50   3.277609     0.7417E-02  -4.19319  10.48297
     190.50   3.279895     0.7199E-02  -4.20612  10.51529
     191.50   3.282169     0.8301E-02  -4.14425  10.36063
     192.50   3.284431     0.8362E-02  -4.14110  10.35275
     193.50   3.286681     0.5640E-02  -4.31208  10.78019
     194.50   3.288920     0.1091E-01  -4.02542  10.06355
     195.50   3.291147     0.1195E-01  -3.98611   9.96527
     196.70   3.293804     0.1534E-01  -3.87765   9.69412
     197.60   3.295787     0.1546E-01  -3.87413   9.68532
     198.40   3.297542     0.1747E-01  -3.82107   9.55268
     199.50   3.299943     0.1768E-01  -3.81594   9.53986
     200.50   3.302114     0.1765E-01  -3.81675   9.54188
     201.50   3.304275     0.1980E-01  -3.76666   9.41666
     202.50   3.306425     0.1617E-01  -3.85477   9.63692
     203.50   3.308564     0.2228E-01  -3.71544   9.28861
     204.50   3.310693     0.2559E-01  -3.65529   9.13822
     205.50   3.312812     0.2756E-01  -3.62306   9.05766
     206.50   3.314920     0.2769E-01  -3.62113   9.05283
     207.40   3.316809     0.2930E-01  -3.59656   8.99139
     207.80   3.317646     0.6243E-01  -3.26797   8.16994
     208.50   3.319106     0.7995E-01  -3.16058   7.90146
     209.50   3.321184     0.7732E-01  -3.17508   7.93770
     210.50   3.323252     0.8011E-01  -3.15968   7.89921
     211.50   3.325310     0.9483E-01  -3.08644   7.71609
     212.50   3.327359     0.8685E-01  -3.12462   7.81156
     213.50   3.329398     0.9605E-01  -3.08088   7.70221
     214.50   3.331427     0.1141E+00  -3.00603   7.51508
     215.50   3.333447     0.1065E+00  -3.03616   7.59039
     216.50   3.335458     0.1020E+00  -3.05458   7.63644
     217.50   3.337459     0.1028E+00  -3.05149   7.62872
     218.50   3.339452     0.1292E+00  -2.95207   7.38018
     219.50   3.341434     0.1357E+00  -2.93097   7.32742
     220.50   3.343409     0.1395E+00  -2.91876   7.29690
     221.50   3.345374     0.1163E+00  -2.99774   7.49434
     222.50   3.347330     0.1436E+00  -2.90622   7.26554
     223.50   3.349277     0.2012E+00  -2.75971   6.89928
     224.50   3.351216     0.2014E+00  -2.75940   6.89851
     225.50   3.353147     0.1698E+00  -2.83345   7.08363
     226.50   3.355068     0.1378E+00  -2.92404   7.31010
     227.50   3.356982     0.1592E+00  -2.86153   7.15383
     228.50   3.358886     0.2343E+00  -2.69361   6.73403
     229.50   3.360783     0.2008E+00  -2.76054   6.90136
     230.50   3.362671     0.2151E+00  -2.73068   6.82669
     231.50   3.364551     0.2191E+00  -2.72283   6.80708
     232.50   3.366423     0.2161E+00  -2.72870   6.82175
     233.50   3.368287     0.2292E+00  -2.70311   6.75777
     234.50   3.370143     0.1563E+00  -2.86931   7.17328
     235.50   3.371991     0.2439E+00  -2.67616   6.69039
     236.50   3.373831     0.1831E+00  -2.80078   7.00196
     237.50   3.375664     0.2228E+00  -2.71547   6.78867
     238.50   3.377488     0.1681E+00  -2.83789   7.09472
     239.50   3.379306     0.2017E+00  -2.75868   6.89671
     240.50   3.381115     0.2295E+00  -2.70256   6.75641
     241.50   3.382917     0.2111E+00  -2.73885   6.84714
     242.50   3.384712     0.3346E+00  -2.53881   6.34702
     243.50   3.386499     0.3672E+00  -2.49850   6.24626
     244.50   3.388279     0.4530E+00  -2.40730   6.01826
     245.50   3.390052     0.4942E+00  -2.36950   5.92374
     246.50   3.391817     0.3823E+00  -2.48103   6.20259
     247.50   3.393575     0.3546E+00  -2.51366   6.28414
     248.50   3.395326     0.1502E+00  -2.88672   7.21679
     249.50   3.397071     0.2297E+00  -2.70226   6.75564
     250.50   3.398808     0.3912E+00  -2.47096   6.17741
     251.30   3.400192     0.1994E+00  -2.76361   6.90903
     251.80   3.401056     0.1407E+00  -2.91504   7.28759
     252.50   3.402261     0.1627E+00  -2.85200   7.13000
     253.50   3.403978     0.3745E+00  -2.48999   6.22497
     254.50   3.405688     0.3943E+00  -2.46760   6.16899
     255.50   3.407391     0.9409E+00  -2.08984   5.22459
     256.50   3.409087     0.6473E+00  -2.25225   5.63063
     257.50   3.410777     0.9427E+00  -2.08901   5.22252
     258.50   3.412461     0.8580E+00  -2.12989   5.32472
     259.50   3.414137     0.8196E+00  -2.14981   5.37451
     260.50   3.415808     0.7711E+00  -2.17626   5.44066
     261.50   3.417472     0.6886E+00  -2.22542   5.56356
     262.50   3.419129     0.9722E+00  -2.07561   5.18903
     263.50   3.420781     0.1979E+01  -1.76687   4.41718
     264.50   3.422426     0.2465E+01  -1.67152   4.17879
     265.50   3.424065     0.4423E+01  -1.41771   3.54427
     266.50   3.425697     0.2305E+01  -1.70064   4.25160
     267.50   3.427324     0.2543E+01  -1.65806   4.14514
     268.50   3.428944     0.3347E+01  -1.53869   3.84673
     269.50   3.430559     0.2012E+01  -1.75974   4.39936
     270.50   3.432167     0.2951E+01  -1.59346   3.98364
     271.50   3.433770     0.1947E+01  -1.77406   4.43515
     272.50   3.435366     0.1154E+01  -2.00104   5.00260
     273.50   3.436957     0.1698E+01  -1.83343   4.58356
     274.50   3.438542     0.1166E+01  -1.99686   4.99216
     275.50   3.440122     0.1634E+01  -1.85016   4.62541
     276.50   3.441695     0.2254E+01  -1.71046   4.27616
     277.50   3.443263     0.2421E+01  -1.67936   4.19841
     278.50   3.444825     0.1438E+01  -1.90551   4.76377
     279.50   3.446382     0.6874E+00  -2.22618   5.56545
     280.50   3.447933     0.8429E+00  -2.13763   5.34409
     281.50   3.449478     0.2154E+01  -1.73005   4.32513
     282.50   3.451018     0.2925E+01  -1.59724   3.99311
     283.50   3.452553     0.2418E+01  -1.67998   4.19994
     284.50   3.454082     0.1357E+01  -1.93067   4.82668
     285.50   3.455606     0.6455E+00  -2.25353   5.63381
     286.50   3.457125     0.2035E+01  -1.75478   4.38694
     287.50   3.458638     0.3815E+01  -1.48187   3.70466
     288.50   3.460146     0.3868E+01  -1.47585   3.68963
     289.50   3.461648     0.5715E+01  -1.30635   3.26586
     291.00   3.463893     0.9061E+01  -1.10621   2.76553
     293.00   3.466868     0.8059E+01  -1.15710   2.89276
     295.00   3.469822     0.7428E+01  -1.19253   2.98133
     297.00   3.472756     0.7766E+01  -1.17318   2.93296
     299.00   3.475671     0.8147E+01  -1.15241   2.88103
     301.00   3.478566     0.7728E+01  -1.17533   2.93831
     303.00   3.481443     0.9226E+01  -1.09836   2.74590
     305.00   3.484300     0.9487E+01  -1.08627   2.71567
     307.00   3.487138     0.1096E+02  -1.02352   2.55880
     309.00   3.489959     0.9746E+01  -1.07458   2.68645
     311.00   3.492760     0.1319E+02  -0.94318   2.35796
     313.00   3.495544     0.1143E+02  -1.00550   2.51375
     315.00   3.498311     0.1220E+02  -0.97691   2.44227
     317.00   3.501059     0.1433E+02  -0.90727   2.26817
     319.00   3.503791     0.1164E+02  -0.99735   2.49338
     321.00   3.506505     0.1287E+02  -0.95376   2.38441
     323.00   3.509202     0.1080E+02  -1.02994   2.57485
     325.00   3.511883     0.1710E+02  -0.83049   2.07622
     327.00   3.514548     0.2068E+02  -0.74789   1.86973
     329.00   3.517196     0.2061E+02  -0.74934   1.87335
     331.00   3.519828     0.1824E+02  -0.80243   2.00608
     333.00   3.522444     0.1934E+02  -0.77695   1.94238
     335.00   3.525045     0.1858E+02  -0.79433   1.98583
     337.00   3.527630     0.1248E+02  -0.96720   2.41800
     339.00   3.530200     0.1484E+02  -0.89197   2.22994
     341.00   3.532754     0.1553E+02  -0.87229   2.18071
     343.00   3.535294     0.1680E+02  -0.83807   2.09518
     345.00   3.537819     0.1871E+02  -0.79128   1.97820
     347.00   3.540329     0.1985E+02  -0.76558   1.91396
     349.00   3.542825     0.2332E+02  -0.69560   1.73900
     351.00   3.545307     0.2527E+02  -0.66084   1.65209
     353.00   3.547775     0.2145E+02  -0.73206   1.83015
     355.00   3.550228     0.2453E+02  -0.67375   1.68439
     357.00   3.552668     0.1560E+02  -0.87028   2.17569
     359.00   3.555094     0.1712E+02  -0.82981   2.07453
     361.00   3.557507     0.2359E+02  -0.69071   1.72677
     363.00   3.559907     0.2550E+02  -0.65691   1.64228
     364.00   3.561101     0.2594E+02  -0.64935   1.62337
     365.00   3.562293     0.2903E+02  -0.60049   1.50122
     367.00   3.564666     0.3265E+02  -0.54948   1.37369
     369.00   3.567026     0.2741E+02  -0.62542   1.56355
     371.00   3.569374     0.2803E+02  -0.61576   1.53939
     373.00   3.571709     0.1505E+02  -0.88573   2.21433
     375.00   3.574031     0.1783E+02  -0.81225   2.03063
     377.00   3.576341     0.2683E+02  -0.63483   1.58708
     379.00   3.578639     0.2757E+02  -0.62297   1.55742
     381.00   3.580925     0.2390E+02  -0.68496   1.71240
     383.00   3.583199     0.1158E+02  -0.99954   2.49885
     385.00   3.585461     0.1638E+02  -0.84907   2.12268
     387.00   3.587711     0.1654E+02  -0.84491   2.11227
     389.00   3.589950     0.2509E+02  -0.66381   1.65952
     391.00   3.592177     0.3264E+02  -0.54969   1.37423
     393.00   3.594393     0.1427E+02  -0.90892   2.27231
     395.00   3.596597     0.2729E+02  -0.62738   1.56844
     397.00   3.598790     0.1858E+02  -0.79442   1.98605
     399.00   3.600973     0.4724E+02  -0.38910   0.97276
     401.00   3.603144     0.5402E+02  -0.33084   0.82709
     403.00   3.605305     0.5263E+02  -0.34215   0.85538
     405.00   3.607455     0.4991E+02  -0.36516   0.91290
     407.00   3.609594     0.4554E+02  -0.40498   1.01246
     409.00   3.611723     0.6251E+02  -0.26745   0.66861
     411.00   3.613842     0.5807E+02  -0.29947   0.74866
     413.00   3.615950     0.5406E+02  -0.33051   0.82628
     415.00   3.618048     0.5211E+02  -0.34647   0.86616
     417.00   3.620136     0.5363E+02  -0.33402   0.83505
     419.00   3.622214     0.5317E+02  -0.33770   0.84425
     421.00   3.624282     0.5392E+02  -0.33162   0.82906
     423.00   3.626340     0.4804E+02  -0.38181   0.95452
     425.00   3.628389     0.5632E+02  -0.31273   0.78182
     427.00   3.630428     0.5261E+02  -0.34232   0.85579
     429.00   3.632457     0.4945E+02  -0.36927   0.92316
     431.00   3.634477     0.4379E+02  -0.42200   1.05500
     433.00   3.636488     0.6847E+02  -0.22790   0.56974
     435.00   3.638489     0.7064E+02  -0.21434   0.53585
     437.00   3.640481     0.7682E+02  -0.17792   0.44479
     439.00   3.642465     0.6496E+02  -0.25073   0.62683
     441.00   3.644439     0.6897E+02  -0.22476   0.56190
     443.00   3.646404     0.7549E+02  -0.18551   0.46378
     445.00   3.648360     0.7742E+02  -0.17452   0.43630
     447.00   3.650307     0.8506E+02  -0.13369   0.33422
     449.00   3.652246     0.8862E+02  -0.11587   0.28968
     451.00   3.654176     0.1055E+03  -0.04023   0.10058
     453.00   3.656098     0.8787E+02  -0.11954   0.29885
     455.00   3.658011     0.9413E+02  -0.08968   0.22419
     457.00   3.659916     0.1046E+03  -0.04405   0.11013
     459.00   3.661813     0.9738E+02  -0.07490   0.18725
     461.00   3.663701     0.1006E+03  -0.06079   0.15197
     463.00   3.665581     0.9692E+02  -0.07698   0.19244
     465.00   3.667453     0.9859E+02  -0.06954   0.17385
     467.00   3.669317     0.1052E+03  -0.04126   0.10315
     469.00   3.671173     0.1028E+03  -0.05132   0.12829
     471.00   3.673021     0.9942E+02  -0.06591   0.16478
     473.00   3.674861     0.1032E+03  -0.04953   0.12383
     475.00   3.676694     0.1064E+03  -0.03641   0.09103
     477.00   3.678518     0.1028E+03  -0.05138   0.12844
     479.00   3.680336     0.1047E+03  -0.04339   0.10846
     481.00   3.682145     0.1057E+03  -0.03943   0.09859
     483.00   3.683947     0.1111E+03  -0.01783   0.04457
     485.00   3.685742     0.1056E+03  -0.03988   0.09971
     487.00   3.687529     0.9689E+02  -0.07710   0.19274
     489.00   3.689309     0.1077E+03  -0.03119   0.07798
     491.00   3.691082     0.1085E+03  -0.02816   0.07039
     493.00   3.692847     0.1058E+03  -0.03900   0.09749
     495.00   3.694605     0.1102E+03  -0.02112   0.05279
     497.00   3.696356     0.1041E+03  -0.04579   0.11447
     499.00   3.698101     0.9574E+02  -0.08231   0.20576
     501.00   3.699838     0.8833E+02  -0.11729   0.29322
     503.00   3.701568     0.9630E+02  -0.07978   0.19944
     505.00   3.703291     0.9600E+02  -0.08110   0.20275
     507.00   3.705008     0.1008E+03  -0.05997   0.14991
     509.00   3.706718     0.9390E+02  -0.09073   0.22682
     511.00   3.708421     0.9740E+02  -0.07484   0.18711
     513.00   3.710117     0.9332E+02  -0.09341   0.23353
     515.00   3.711807     0.8949E+02  -0.11159   0.27898
     517.00   3.713490     0.7646E+02  -0.17993   0.44983
     519.00   3.715167     0.8147E+02  -0.15242   0.38104
     521.00   3.716838     0.9255E+02  -0.09700   0.24251
     523.00   3.718502     0.1065E+03  -0.03595   0.08988
     525.00   3.720159     0.1137E+03  -0.00759   0.01898
     527.00   3.721811     0.9604E+02  -0.08094   0.20234
     529.00   3.723456     0.1173E+03   0.00606  -0.01515
     531.00   3.725095     0.1278E+03   0.04299  -0.10747
     533.00   3.726727     0.1072E+03  -0.03327   0.08318
     535.00   3.728354     0.1220E+03   0.02297  -0.05743
     537.00   3.729974     0.1205E+03   0.01765  -0.04413
     539.00   3.731589     0.1171E+03   0.00513  -0.01282
     541.00   3.733197     0.1158E+03   0.00021  -0.00054
     543.00   3.734800     0.1179E+03   0.00817  -0.02044
     545.00   3.736397     0.1195E+03   0.01411  -0.03528
     547.00   3.737987     0.1166E+03   0.00325  -0.00811
     549.00   3.739572     0.1178E+03   0.00778  -0.01945
     551.00   3.741152     0.1157E+03   0.00000   0.00000
     553.00   3.742725     0.1227E+03   0.02556  -0.06389
     555.00   3.744293     0.1258E+03   0.03633  -0.09082
     557.00   3.745855     0.1232E+03   0.02720  -0.06799
     559.00   3.747412     0.1186E+03   0.01080  -0.02701
     561.00   3.748963     0.1234E+03   0.02776  -0.06940
     563.00   3.750508     0.1226E+03   0.02526  -0.06314
     565.00   3.752048     0.1262E+03   0.03756  -0.09389
     567.00   3.753583     0.1230E+03   0.02652  -0.06629
     569.00   3.755112     0.1287E+03   0.04612  -0.11529
     571.00   3.756636     0.1235E+03   0.02839  -0.07096
     573.00   3.758155     0.1375E+03   0.07484  -0.18710
     575.00   3.759668     0.1310E+03   0.05396  -0.13490
     577.00   3.761176     0.1328E+03   0.05993  -0.14983
     579.00   3.762679     0.1263E+03   0.03809  -0.09523
     581.00   3.764176     0.1334E+03   0.06170  -0.15426
     583.00   3.765669     0.1385E+03   0.07814  -0.19534
     585.00   3.767156     0.1318E+03   0.05666  -0.14166
     587.00   3.768638     0.1306E+03   0.05257  -0.13143
     589.00   3.770115     0.1064E+03  -0.03649   0.09123
     591.00   3.771587     0.1272E+03   0.04101  -0.10253
     593.00   3.773055     0.1299E+03   0.05031  -0.12578
     595.00   3.774517     0.1305E+03   0.05209  -0.13024
     597.00   3.775974     0.1341E+03   0.06405  -0.16012
     599.00   3.777427     0.1317E+03   0.05605  -0.14013
     601.00   3.778874     0.1302E+03   0.05116  -0.12789
     603.00   3.780317     0.1357E+03   0.06909  -0.17272
     605.00   3.781755     0.1390E+03   0.07977  -0.19943
     607.00   3.783189     0.1390E+03   0.07962  -0.19904
     609.00   3.784617     0.1330E+03   0.06036  -0.15091
     611.00   3.786041     0.1340E+03   0.06371  -0.15928
     613.00   3.787461     0.1248E+03   0.03296  -0.08241
     615.00   3.788875     0.1294E+03   0.04844  -0.12110
     617.00   3.790285     0.1174E+03   0.00639  -0.01597
     619.00   3.791691     0.1274E+03   0.04177  -0.10442
     621.00   3.793092     0.1252E+03   0.03426  -0.08565
     623.00   3.794488     0.1201E+03   0.01628  -0.04070
     625.00   3.795880     0.1166E+03   0.00324  -0.00811
     627.00   3.797267     0.1236E+03   0.02857  -0.07142
     629.00   3.798651     0.1281E+03   0.04407  -0.11017
     631.00   3.800029     0.1247E+03   0.03264  -0.08161
     633.00   3.801404     0.1275E+03   0.04196  -0.10489
     635.00   3.802774     0.1275E+03   0.04220  -0.10549
     637.00   3.804139     0.1275E+03   0.04203  -0.10508
     639.00   3.805501     0.1321E+03   0.05760  -0.14401
     641.00   3.806858     0.1293E+03   0.04814  -0.12036
     643.00   3.808211     0.1308E+03   0.05315  -0.13288
     645.00   3.809560     0.1300E+03   0.05065  -0.12662
     647.00   3.810904     0.1299E+03   0.05038  -0.12595
     649.00   3.812245     0.1275E+03   0.04227  -0.10568
     651.00   3.813581     0.1339E+03   0.06330  -0.15826
     653.00   3.814913     0.1342E+03   0.06447  -0.16118
     655.00   3.816241     0.1318E+03   0.05651  -0.14127
     657.00   3.817565     0.1271E+03   0.04079  -0.10198
     659.00   3.818885     0.1314E+03   0.05525  -0.13813
     661.00   3.820201     0.1325E+03   0.05879  -0.14697
     663.00   3.821513     0.1299E+03   0.05024  -0.12561
     665.00   3.822822     0.1290E+03   0.04725  -0.11812
     667.00   3.824126     0.1243E+03   0.03118  -0.07795
     669.00   3.825426     0.1249E+03   0.03317  -0.08292
     671.00   3.826723     0.1179E+03   0.00813  -0.02033
     673.00   3.828015     0.1216E+03   0.02140  -0.05351
     675.00   3.829304     0.1189E+03   0.01189  -0.02972
     677.00   3.830589     0.1197E+03   0.01478  -0.03696
     679.00   3.831870     0.1178E+03   0.00784  -0.01961
     681.00   3.833147     0.1195E+03   0.01399  -0.03498
     683.00   3.834421     0.1220E+03   0.02313  -0.05782
     685.00   3.835690     0.1187E+03   0.01117  -0.02794
     687.00   3.836957     0.1218E+03   0.02212  -0.05530
     689.00   3.838219     0.1252E+03   0.03408  -0.08519
     691.00   3.839478     0.1266E+03   0.03910  -0.09776
     693.00   3.840733     0.1261E+03   0.03731  -0.09328
     695.00   3.841985     0.1276E+03   0.04231  -0.10579
     697.00   3.843233     0.1313E+03   0.05480  -0.13700
     699.00   3.844477     0.1320E+03   0.05730  -0.14325
     701.00   3.845718     0.1321E+03   0.05753  -0.14382
     703.00   3.846955     0.1343E+03   0.06461  -0.16152
     705.00   3.848189     0.1321E+03   0.05749  -0.14374
     707.00   3.849419     0.1241E+03   0.03026  -0.07565
     709.00   3.850646     0.1154E+03  -0.00125   0.00313
     711.00   3.851870     0.1101E+03  -0.02146   0.05366
     713.00   3.853090     0.1065E+03  -0.03588   0.08970
     715.00   3.854306     0.1059E+03  -0.03830   0.09575
     717.00   3.855519     0.1084E+03  -0.02839   0.07097
     719.00   3.856729     0.1061E+03  -0.03762   0.09406
     721.00   3.857935     0.1101E+03  -0.02174   0.05435
     723.00   3.859138     0.1146E+03  -0.00408   0.01021
     725.00   3.860338     0.1170E+03   0.00486  -0.01214
     727.00   3.861534     0.1193E+03   0.01335  -0.03338
     729.00   3.862728     0.1200E+03   0.01577  -0.03943
     731.00   3.863917     0.1272E+03   0.04125  -0.10313
     733.00   3.865104     0.1279E+03   0.04347  -0.10868
     735.00   3.866287     0.1331E+03   0.06076  -0.15190
     737.00   3.867467     0.1395E+03   0.08106  -0.20266
     739.00   3.868644     0.1367E+03   0.07238  -0.18095
     741.00   3.869818     0.1408E+03   0.08507  -0.21268
     743.00   3.870989     0.1455E+03   0.09948  -0.24870
     745.00   3.872156     0.1443E+03   0.09577  -0.23943
     747.00   3.873321     0.1517E+03   0.11746  -0.29366
     749.00   3.874482     0.1513E+03   0.11642  -0.29106
     751.00   3.875640     0.1529E+03   0.12111  -0.30277
     753.00   3.876795     0.1583E+03   0.13602  -0.34004
     755.00   3.877947     0.1603E+03   0.14160  -0.35400
     757.00   3.879096     0.1615E+03   0.14465  -0.36163
     759.00   3.880242     0.1530E+03   0.12134  -0.30334
     761.00   3.881385     0.1456E+03   0.09978  -0.24945
     763.00   3.882524     0.1371E+03   0.07361  -0.18403
     765.00   3.883662     0.1282E+03   0.04458  -0.11145
     767.00   3.884795     0.1182E+03   0.00930  -0.02325
     769.00   3.885926     0.1210E+03   0.01926  -0.04815
     771.00   3.887054     0.1188E+03   0.01126  -0.02816
     773.00   3.888180     0.1188E+03   0.01146  -0.02865
     775.00   3.889302     0.1181E+03   0.00882  -0.02205
     777.00   3.890421     0.1203E+03   0.01694  -0.04235
     779.00   3.891537     0.1216E+03   0.02158  -0.05395
     781.00   3.892651     0.1219E+03   0.02270  -0.05676
     783.00   3.893762     0.1219E+03   0.02263  -0.05657
     785.00   3.894870     0.1199E+03   0.01533  -0.03833
     787.00   3.895975     0.1232E+03   0.02737  -0.06843
     789.00   3.897077     0.1227E+03   0.02546  -0.06366
     791.00   3.898176     0.1190E+03   0.01199  -0.02996
     793.00   3.899273     0.1209E+03   0.01895  -0.04739
     795.00   3.900367     0.1207E+03   0.01816  -0.04540
     797.00   3.901458     0.1253E+03   0.03444  -0.08610
     799.00   3.902547     0.1258E+03   0.03641  -0.09103
     801.00   3.903632     0.1300E+03   0.05062  -0.12656
     803.00   3.904716     0.1319E+03   0.05674  -0.14186
     805.00   3.905796     0.1321E+03   0.05740  -0.14351
     807.00   3.906873     0.1380E+03   0.07653  -0.19133
     809.00   3.907948     0.1382E+03   0.07701  -0.19252
     811.00   3.909021     0.1411E+03   0.08599  -0.21498
     813.00   3.910090     0.1489E+03   0.10958  -0.27395
     815.00   3.911158     0.1537E+03   0.12317  -0.30792
     817.00   3.912222     0.1564E+03   0.13096  -0.32740
     819.00   3.913284     0.1539E+03   0.12389  -0.30973
     821.00   3.914343     0.1432E+03   0.09270  -0.23176
     823.00   3.915400     0.1440E+03   0.09484  -0.23710
     825.00   3.916454     0.1430E+03   0.09205  -0.23012
     827.00   3.917506     0.1437E+03   0.09414  -0.23534
     829.00   3.918555     0.1414E+03   0.08706  -0.21765
     831.00   3.919601     0.1358E+03   0.06936  -0.17340
     833.00   3.920645     0.1343E+03   0.06461  -0.16153
     835.00   3.921686     0.1338E+03   0.06297  -0.15741
     837.00   3.922725     0.1351E+03   0.06731  -0.16828
     839.00   3.923762     0.1307E+03   0.05299  -0.13249
     841.00   3.924796     0.1354E+03   0.06809  -0.17023
     843.00   3.925828     0.1292E+03   0.04800  -0.12000
     845.00   3.926857     0.1198E+03   0.01495  -0.03738
     847.00   3.927883     0.1196E+03   0.01417  -0.03543
     849.00   3.928908     0.1215E+03   0.02104  -0.05259
     851.00   3.929929     0.1159E+03   0.00058  -0.00146
     853.00   3.930949     0.1203E+03   0.01690  -0.04225
     855.00   3.931966     0.1131E+03  -0.00996   0.02489
     857.00   3.932981     0.1273E+03   0.04152  -0.10381
     859.00   3.933993     0.1267E+03   0.03947  -0.09868
     861.00   3.935003     0.1303E+03   0.05165  -0.12913
     863.00   3.936011     0.1339E+03   0.06355  -0.15888
     865.00   3.937016     0.1347E+03   0.06586  -0.16466
     867.00   3.938019     0.1226E+03   0.02526  -0.06315
     869.00   3.939020     0.1345E+03   0.06549  -0.16373
     871.00   3.940018     0.1407E+03   0.08504  -0.21260
     873.00   3.941014     0.1430E+03   0.09185  -0.22962
     875.00   3.942008     0.1428E+03   0.09134  -0.22836
     877.00   3.943000     0.1449E+03   0.09760  -0.24401
     879.00   3.943989     0.1513E+03   0.11647  -0.29118
     881.00   3.944976     0.1499E+03   0.11251  -0.28128
     883.00   3.945961     0.1519E+03   0.11812  -0.29529
     885.00   3.946943     0.1471E+03   0.10437  -0.26092
     887.00   3.947924     0.1381E+03   0.07673  -0.19183
     889.00   3.948902     0.1374E+03   0.07463  -0.18658
     891.00   3.949878     0.1399E+03   0.08258  -0.20645
     893.00   3.950851     0.1382E+03   0.07717  -0.19292
     895.00   3.951823     0.1397E+03   0.08174  -0.20435
     897.00   3.952792     0.1403E+03   0.08369  -0.20923
     899.00   3.953760     0.1409E+03   0.08556  -0.21389
     901.00   3.954725     0.1391E+03   0.07993  -0.19984
     903.00   3.955688     0.1466E+03   0.10260  -0.25651
     905.00   3.956649     0.1533E+03   0.12213  -0.30533
     907.00   3.957607     0.1567E+03   0.13172  -0.32929
     909.00   3.958564     0.1571E+03   0.13277  -0.33192
     911.00   3.959518     0.1601E+03   0.14099  -0.35249
     913.00   3.960471     0.1628E+03   0.14827  -0.37068
     915.00   3.961421     0.1618E+03   0.14553  -0.36384
     917.00   3.962369     0.1622E+03   0.14679  -0.36698
     919.00   3.963315     0.1644E+03   0.15239  -0.38097
     921.00   3.964260     0.1539E+03   0.12377  -0.30942
     923.00   3.965202     0.1503E+03   0.11351  -0.28377
     925.00   3.966142     0.1471E+03   0.10422  -0.26055
     927.00   3.967080     0.1508E+03   0.11504  -0.28759
     929.00   3.968016     0.1439E+03   0.09482  -0.23705
     931.00   3.968950     0.1447E+03   0.09697  -0.24243
     933.00   3.969882     0.1472E+03   0.10443  -0.26108
     935.00   3.970812     0.1472E+03   0.10459  -0.26148
     937.00   3.971740     0.1429E+03   0.09163  -0.22908
     939.00   3.972666     0.1481E+03   0.10706  -0.26766
     941.00   3.973590     0.1476E+03   0.10556  -0.26391
     943.00   3.974512     0.1508E+03   0.11509  -0.28771
     945.00   3.975432     0.1502E+03   0.11335  -0.28337
     947.00   3.976350     0.1553E+03   0.12777  -0.31943
     949.00   3.977266     0.1567E+03   0.13155  -0.32888
     951.00   3.978180     0.1492E+03   0.11045  -0.27613
     953.00   3.979093     0.1536E+03   0.12307  -0.30769
     955.00   3.980003     0.1530E+03   0.12140  -0.30350
     957.00   3.980912     0.1557E+03   0.12895  -0.32237
     959.00   3.981819     0.1577E+03   0.13442  -0.33606
     961.00   3.982723     0.1563E+03   0.13063  -0.32657
     963.00   3.983626     0.1593E+03   0.13871  -0.34678
     965.00   3.984527     0.1574E+03   0.13370  -0.33424
     967.00   3.985426     0.1583E+03   0.13623  -0.34057
     969.00   3.986324     0.1601E+03   0.14096  -0.35240
     971.00   3.987219     0.1561E+03   0.12995  -0.32488
     973.00   3.988113     0.1536E+03   0.12294  -0.30735
     975.00   3.989005     0.1536E+03   0.12314  -0.30784
     977.00   3.989895     0.1549E+03   0.12667  -0.31668
     979.00   3.990783     0.1538E+03   0.12361  -0.30902
     981.00   3.991669     0.1574E+03   0.13375  -0.33438
     983.00   3.992553     0.1558E+03   0.12908  -0.32270
     985.00   3.993436     0.1568E+03   0.13198  -0.32995
     987.00   3.994317     0.1561E+03   0.12993  -0.32482
     989.00   3.995196     0.1561E+03   0.12992  -0.32479
     991.00   3.996074     0.1562E+03   0.13041  -0.32604
     993.00   3.996949     0.1578E+03   0.13464  -0.33659
     995.00   3.997823     0.1591E+03   0.13825  -0.34564
     997.00   3.998695     0.1594E+03   0.13905  -0.34763
     999.00   3.999566     0.1591E+03   0.13828  -0.34570
    1003.00   4.001301     0.1612E+03   0.14406  -0.36015
    1008.00   4.003461     0.1614E+03   0.14439  -0.36098
    1013.00   4.005610     0.1667E+03   0.15848  -0.39620
    1018.00   4.007748     0.1648E+03   0.15370  -0.38425
    1023.00   4.009875     0.1674E+03   0.16029  -0.40072
    1028.00   4.011993     0.1687E+03   0.16372  -0.40930
    1033.00   4.014100     0.1688E+03   0.16410  -0.41024
    1038.00   4.016197     0.1684E+03   0.16286  -0.40716
    1043.00   4.018284     0.1702E+03   0.16749  -0.41873
    1048.00   4.020361     0.1698E+03   0.16646  -0.41616
    1053.00   4.022429     0.1647E+03   0.15336  -0.38341
    1058.00   4.024486     0.1596E+03   0.13973  -0.34932
    1063.00   4.026533     0.1583E+03   0.13615  -0.34037
    1068.00   4.028571     0.1603E+03   0.14150  -0.35375
    1073.00   4.030600     0.1630E+03   0.14874  -0.37184
    1078.00   4.032619     0.1627E+03   0.14811  -0.37026
    1083.00   4.034628     0.1610E+03   0.14344  -0.35861
    1088.00   4.036629     0.1599E+03   0.14058  -0.35146
    1093.00   4.038620     0.1593E+03   0.13896  -0.34740
    1098.00   4.040603     0.1571E+03   0.13280  -0.33199
    1103.00   4.042576     0.1564E+03   0.13092  -0.32730
    1108.00   4.044539     0.1493E+03   0.11064  -0.27660
    1113.00   4.046495     0.1511E+03   0.11578  -0.28945
    1118.00   4.048442     0.1510E+03   0.11556  -0.28889
    1123.00   4.050380     0.1521E+03   0.11862  -0.29654
    1128.00   4.052309     0.1529E+03   0.12089  -0.30223
    1133.00   4.054230     0.1533E+03   0.12204  -0.30511
    1138.00   4.056142     0.1535E+03   0.12272  -0.30680
    1143.00   4.058046     0.1532E+03   0.12196  -0.30490
    1148.00   4.059942     0.1548E+03   0.12625  -0.31563
    1153.00   4.061830     0.1553E+03   0.12774  -0.31935
    1158.00   4.063708     0.1547E+03   0.12597  -0.31491
    1163.00   4.065579     0.1536E+03   0.12314  -0.30785
    1168.00   4.067443     0.1539E+03   0.12376  -0.30939
    1173.00   4.069298     0.1534E+03   0.12243  -0.30606
    1178.00   4.071145     0.1502E+03   0.11332  -0.28330
    1183.00   4.072985     0.1476E+03   0.10582  -0.26456
    1188.00   4.074817     0.1461E+03   0.10128  -0.25320
    1193.00   4.076640     0.1482E+03   0.10753  -0.26883
    1198.00   4.078457     0.1456E+03   0.09981  -0.24953
    1203.00   4.080266     0.1487E+03   0.10892  -0.27230
    1208.00   4.082067     0.1485E+03   0.10848  -0.27120
    1213.00   4.083861     0.1492E+03   0.11032  -0.27581
    1218.00   4.085648     0.1496E+03   0.11161  -0.27902
    1223.00   4.087426     0.1492E+03   0.11051  -0.27628
    1228.00   4.089198     0.1487E+03   0.10888  -0.27220
    1233.00   4.090963     0.1481E+03   0.10704  -0.26759
    1238.00   4.092721     0.1479E+03   0.10667  -0.26668
    1243.00   4.094471     0.1440E+03   0.09500  -0.23751
    1248.00   4.096214     0.1448E+03   0.09735  -0.24337
    1253.00   4.097951     0.1444E+03   0.09613  -0.24031
    1258.00   4.099681     0.1428E+03   0.09127  -0.22818
    1263.00   4.101403     0.1431E+03   0.09214  -0.23034
    1268.00   4.103119     0.1427E+03   0.09106  -0.22766
    1273.00   4.104828     0.1424E+03   0.09010  -0.22526
    1278.00   4.106531     0.1430E+03   0.09196  -0.22991
    1283.00   4.108227     0.1406E+03   0.08455  -0.21138
    1288.00   4.109916     0.1417E+03   0.08807  -0.22018
    1293.00   4.111598     0.1409E+03   0.08540  -0.21350
    1298.00   4.113275     0.1421E+03   0.08912  -0.22281
    1303.00   4.114944     0.1409E+03   0.08555  -0.21387
    1308.00   4.116608     0.1409E+03   0.08562  -0.21405
    1313.00   4.118265     0.1385E+03   0.07811  -0.19527
    1318.00   4.119915     0.1379E+03   0.07623  -0.19057
    1323.00   4.121560     0.1375E+03   0.07499  -0.18748
    1328.00   4.123198     0.1356E+03   0.06896  -0.17240
    1333.00   4.124830     0.1355E+03   0.06843  -0.17108
    1338.00   4.126456     0.1341E+03   0.06418  -0.16044
    1343.00   4.128076     0.1339E+03   0.06343  -0.15858
    1348.00   4.129690     0.1327E+03   0.05942  -0.14856
    1353.00   4.131298     0.1318E+03   0.05644  -0.14109
    1358.00   4.132900     0.1300E+03   0.05040  -0.12600
    1363.00   4.134496     0.1298E+03   0.04984  -0.12459
    1368.00   4.136086     0.1307E+03   0.05305  -0.13263
    1373.00   4.137671     0.1316E+03   0.05589  -0.13972
    1378.00   4.139249     0.1318E+03   0.05657  -0.14143
    1383.00   4.140822     0.1318E+03   0.05669  -0.14171
    1388.00   4.142389     0.1307E+03   0.05276  -0.13189
    1393.00   4.143951     0.1138E+03  -0.00740   0.01851
    1398.00   4.145507     0.1152E+03  -0.00209   0.00522
    1403.00   4.147058     0.1148E+03  -0.00329   0.00823
    1408.00   4.148602     0.1158E+03   0.00041  -0.00103
    1413.00   4.150142     0.1152E+03  -0.00176   0.00439
    1418.00   4.151676     0.1163E+03   0.00220  -0.00551
    1423.00   4.153205     0.1160E+03   0.00115  -0.00287
    1428.00   4.154728     0.1154E+03  -0.00120   0.00300
    1433.00   4.156246     0.1177E+03   0.00732  -0.01831
    1438.00   4.157759     0.1186E+03   0.01061  -0.02653
    1443.00   4.159266     0.1174E+03   0.00631  -0.01577
    1448.00   4.160769     0.1194E+03   0.01351  -0.03378
    1453.00   4.162266     0.1191E+03   0.01256  -0.03140
    1457.00   4.163460     0.1199E+03   0.01544  -0.03861
    1462.00   4.164948     0.1117E+03  -0.01528   0.03820
    1468.00   4.166726     0.1131E+03  -0.01000   0.02501
    1473.00   4.168202     0.1131E+03  -0.00974   0.02435
    1478.00   4.169674     0.1146E+03  -0.00425   0.01063
    1483.00   4.171141     0.1158E+03   0.00020  -0.00051
    1488.00   4.172603     0.1158E+03   0.00043  -0.00106
    1493.00   4.174060     0.1187E+03   0.01111  -0.02778
    1498.00   4.175512     0.1189E+03   0.01166  -0.02916
    1503.00   4.176959     0.1183E+03   0.00956  -0.02389
    1508.00   4.178401     0.1194E+03   0.01368  -0.03419
    1513.00   4.179839     0.1215E+03   0.02136  -0.05341
    1518.00   4.181272     0.1225E+03   0.02486  -0.06216
    1523.00   4.182700     0.1230E+03   0.02657  -0.06643
    1528.00   4.184123     0.1241E+03   0.03056  -0.07639
    1533.00   4.185542     0.1243E+03   0.03123  -0.07808
    1538.00   4.186956     0.1200E+03   0.01593  -0.03983
    1543.00   4.188366     0.1220E+03   0.02303  -0.05757
    1548.00   4.189771     0.1229E+03   0.02607  -0.06518
    1553.00   4.191172     0.1229E+03   0.02623  -0.06556
    1558.00   4.192567     0.1165E+03   0.00299  -0.00747
    1563.00   4.193959     0.1179E+03   0.00825  -0.02063
    1568.00   4.195346     0.1195E+03   0.01403  -0.03507
    1573.00   4.196729     0.1229E+03   0.02624  -0.06560
    1578.00   4.198107     0.1069E+03  -0.03445   0.08613
    1583.00   4.199481     0.1125E+03  -0.01240   0.03101
    1588.00   4.200850     0.1154E+03  -0.00125   0.00312
    1593.00   4.202216     0.1197E+03   0.01453  -0.03633
    1598.00   4.203577     0.1229E+03   0.02631  -0.06578
    1605.00   4.205475     0.1134E+03  -0.00893   0.02232
    1615.00   4.208173     0.1197E+03   0.01475  -0.03688
    1625.00   4.210854     0.1120E+03  -0.01404   0.03509
    1635.00   4.213518     0.1196E+03   0.01433  -0.03583
    1645.00   4.216166     0.1128E+03  -0.01100   0.02749
    1655.00   4.218798     0.1177E+03   0.00724  -0.01809
    1665.00   4.221415     0.1127E+03  -0.01148   0.02870
    1675.00   4.224015     0.1166E+03   0.00349  -0.00873
    1685.00   4.226600     0.1186E+03   0.01084  -0.02710
    1695.00   4.229170     0.1150E+03  -0.00261   0.00653
    1705.00   4.231725     0.1149E+03  -0.00314   0.00784
    1715.00   4.234264     0.1120E+03  -0.01420   0.03550
    1725.00   4.236789     0.1107E+03  -0.01920   0.04800
    1735.00   4.239300     0.1068E+03  -0.03472   0.08680
    1745.00   4.241796     0.1056E+03  -0.03980   0.09950
    1755.00   4.244277     0.1043E+03  -0.04515   0.11287
    1765.00   4.246745     0.1011E+03  -0.05865   0.14664
    1775.00   4.249198     0.9825E+02  -0.07105   0.17761
    1785.00   4.251638     0.9636E+02  -0.07951   0.19878
    1795.00   4.254065     0.9334E+02  -0.09330   0.23325
    1805.00   4.256477     0.9081E+02  -0.10523   0.26308
    1815.00   4.258877     0.8926E+02  -0.11271   0.28179
    1825.00   4.261263     0.8785E+02  -0.11965   0.29913
    1835.00   4.263636     0.8646E+02  -0.12657   0.31643
    1845.00   4.265996     0.8468E+02  -0.13562   0.33905
    1855.00   4.268344     0.8335E+02  -0.14250   0.35624
    1865.00   4.270679     0.8102E+02  -0.15480   0.38700
    1875.00   4.273001     0.7950E+02  -0.16300   0.40749
    1885.00   4.275311     0.7871E+02  -0.16739   0.41846
    1895.00   4.277609     0.7658E+02  -0.17928   0.44821
    1905.00   4.279895     0.7665E+02  -0.17886   0.44716
    1915.00   4.282169     0.7531E+02  -0.18652   0.46631
    1925.00   4.284431     0.7433E+02  -0.19224   0.48060
    1935.00   4.286681     0.7265E+02  -0.20216   0.50541
    1945.00   4.288919     0.7110E+02  -0.21150   0.52876
    1955.00   4.291147     0.7012E+02  -0.21757   0.54391
    1965.00   4.293363     0.6852E+02  -0.22759   0.56896
    1975.00   4.295567     0.6650E+02  -0.24059   0.60147
    1985.00   4.297760     0.6550E+02  -0.24716   0.61790
    1995.00   4.299943     0.6473E+02  -0.25228   0.63069
    2005.00   4.302114     0.6422E+02  -0.25573   0.63932
    2015.00   4.304275     0.6335E+02  -0.26164   0.65410
    2025.00   4.306425     0.6213E+02  -0.27009   0.67524
    2035.00   4.308564     0.6158E+02  -0.27398   0.68495
    2045.00   4.310693     0.6138E+02  -0.27538   0.68845
    2055.00   4.312812     0.6064E+02  -0.28060   0.70150
    2065.00   4.314920     0.5996E+02  -0.28551   0.71376
    2075.00   4.317018     0.5951E+02  -0.28877   0.72191
    2085.00   4.319106     0.5891E+02  -0.29320   0.73299
    2095.00   4.321184     0.5819E+02  -0.29853   0.74633
    2105.00   4.323252     0.5794E+02  -0.30040   0.75101
    2115.00   4.325311     0.5719E+02  -0.30610   0.76524
    2125.00   4.327359     0.5654E+02  -0.31106   0.77764
    2135.00   4.329398     0.5613E+02  -0.31421   0.78552
    2145.00   4.331428     0.5548E+02  -0.31927   0.79817
    2155.00   4.333447     0.5477E+02  -0.32481   0.81203
    2165.00   4.335458     0.5398E+02  -0.33117   0.82793
    2175.00   4.337460     0.5323E+02  -0.33721   0.84303
    2185.00   4.339452     0.5265E+02  -0.34200   0.85501
    2195.00   4.341434     0.5204E+02  -0.34708   0.86770
    2205.00   4.343409     0.5098E+02  -0.35596   0.88990
    2215.00   4.345374     0.5069E+02  -0.35843   0.89608
    2225.00   4.347330     0.4967E+02  -0.36726   0.91814
    2235.00   4.349277     0.4904E+02  -0.37285   0.93213
    2245.00   4.351216     0.4836E+02  -0.37893   0.94733
    2255.00   4.353147     0.4777E+02  -0.38425   0.96063
    2265.00   4.355068     0.4686E+02  -0.39261   0.98152
    2275.00   4.356981     0.4647E+02  -0.39623   0.99058
    2285.00   4.358886     0.4559E+02  -0.40450   1.01125
    2295.00   4.360783     0.3550E+02  -0.51319   1.28297
    2305.00   4.362671     0.4007E+02  -0.46058   1.15145
    2315.00   4.364551     0.4003E+02  -0.46098   1.15246
    2325.00   4.366423     0.3304E+02  -0.54440   1.36100
    2335.00   4.368287     0.3663E+02  -0.49954   1.24884
    2345.00   4.370143     0.3270E+02  -0.54889   1.37223
    2355.00   4.371991     0.3060E+02  -0.57770   1.44426
    2365.00   4.373831     0.3348E+02  -0.53865   1.34664
    2375.00   4.375664     0.3065E+02  -0.57703   1.44257
    2385.00   4.377488     0.2868E+02  -0.60581   1.51453
    2395.00   4.379306     0.3080E+02  -0.57479   1.43698
    2405.00   4.381115     0.2901E+02  -0.60091   1.50227
    2415.00   4.382917     0.2661E+02  -0.63829   1.59571
    2425.00   4.384712     0.2828E+02  -0.61197   1.52991
    2435.00   4.386499     0.2633E+02  -0.64286   1.60716
    2445.00   4.388279     0.2651E+02  -0.64005   1.60012
    2455.00   4.390052     0.2510E+02  -0.66364   1.65911
    2465.00   4.391817     0.2461E+02  -0.67231   1.68076
    2475.00   4.393575     0.2372E+02  -0.68833   1.72083
    2485.00   4.395327     0.1990E+02  -0.76444   1.91110
    2495.00   4.397071     0.1836E+02  -0.79955   1.99887
    2505.00   4.398808     0.1862E+02  -0.79331   1.98329
    2515.00   4.400538     0.1780E+02  -0.81292   2.03231
    2525.00   4.402262     0.1821E+02  -0.80303   2.00757
    2535.00   4.403978     0.1824E+02  -0.80230   2.00575
    2545.00   4.405688     0.1809E+02  -0.80598   2.01495
    2555.00   4.407391     0.1817E+02  -0.80414   2.01035
    2565.00   4.409087     0.1845E+02  -0.79741   1.99353
    2575.00   4.410777     0.1875E+02  -0.79034   1.97584
    2585.00   4.412460     0.1852E+02  -0.79585   1.98963
    2595.00   4.414137     0.1858E+02  -0.79428   1.98570
    2605.00   4.415808     0.1861E+02  -0.79369   1.98423
    2615.00   4.417472     0.1835E+02  -0.79977   1.99944
    2625.00   4.419129     0.1811E+02  -0.80536   2.01340
    2635.00   4.420781     0.1810E+02  -0.80579   2.01447
    2645.00   4.422426     0.1794E+02  -0.80957   2.02394
    2655.00   4.424065     0.1775E+02  -0.81421   2.03554
    2665.00   4.425697     0.1750E+02  -0.82046   2.05114
    2675.00   4.427324     0.1764E+02  -0.81679   2.04199
    2685.00   4.428945     0.1746E+02  -0.82134   2.05335
    2695.00   4.430559     0.1716E+02  -0.82886   2.07216
    2705.00   4.432167     0.1715E+02  -0.82923   2.07308
    2715.00   4.433770     0.1700E+02  -0.83297   2.08243
    2725.00   4.435367     0.1690E+02  -0.83559   2.08897
    2735.00   4.436957     0.1663E+02  -0.84242   2.10604
    2745.00   4.438542     0.1659E+02  -0.84347   2.10866
    2755.00   4.440122     0.1650E+02  -0.84597   2.11493
    2765.00   4.441695     0.1629E+02  -0.85134   2.12835
    2775.00   4.443263     0.1608E+02  -0.85715   2.14288
    2785.00   4.444825     0.1602E+02  -0.85879   2.14699
    2795.00   4.446382     0.1594E+02  -0.86086   2.15216
    2805.00   4.447933     0.1578E+02  -0.86523   2.16308
    2815.00   4.449478     0.1559E+02  -0.87058   2.17644
    2825.00   4.451018     0.1549E+02  -0.87347   2.18368
    2835.00   4.452553     0.1540E+02  -0.87579   2.18948
    2845.00   4.454082     0.1523E+02  -0.88062   2.20154
    2855.00   4.455606     0.1509E+02  -0.88465   2.21163
    2865.00   4.457125     0.1497E+02  -0.88825   2.22062
    2875.00   4.458638     0.1485E+02  -0.89179   2.22949
    2885.00   4.460146     0.1471E+02  -0.89580   2.23951
    2895.00   4.461648     0.1458E+02  -0.89960   2.24901
    2905.00   4.463146     0.1444E+02  -0.90382   2.25956
    2915.00   4.464639     0.1432E+02  -0.90730   2.26825
    2925.00   4.466126     0.1411E+02  -0.91383   2.28456
    2935.00   4.467608     0.1406E+02  -0.91530   2.28825
    2945.00   4.469085     0.1392E+02  -0.91990   2.29975
    2955.00   4.470557     0.1379E+02  -0.92376   2.30939
    2965.00   4.472025     0.1369E+02  -0.92686   2.31715
    2975.00   4.473487     0.1357E+02  -0.93076   2.32689
    2985.00   4.474944     0.1342E+02  -0.93557   2.33892
    2995.00   4.476397     0.1329E+02  -0.93987   2.34968
    3005.00   4.477844     0.1320E+02  -0.94275   2.35688
    3015.00   4.479287     0.1317E+02  -0.94385   2.35963
    3025.00   4.480725     0.1308E+02  -0.94667   2.36669
    3035.00   4.482159     0.1301E+02  -0.94907   2.37268
    3045.00   4.483587     0.1298E+02  -0.94998   2.37495
    3055.00   4.485011     0.1291E+02  -0.95240   2.38100
    3065.00   4.486430     0.1285E+02  -0.95449   2.38622
    3075.00   4.487845     0.1282E+02  -0.95556   2.38891
    3085.00   4.489255     0.1274E+02  -0.95826   2.39565
    3095.00   4.490661     0.1272E+02  -0.95892   2.39731
    3105.00   4.492062     0.1269E+02  -0.95996   2.39990
    3115.00   4.493458     0.1257E+02  -0.96404   2.41011
    3125.00   4.494850     0.1255E+02  -0.96486   2.41215
    3135.00   4.496238     0.1248E+02  -0.96702   2.41755
    3145.00   4.497621     0.1241E+02  -0.96947   2.42368
    3155.00   4.499000     0.1233E+02  -0.97230   2.43074
    3165.00   4.500374     0.1225E+02  -0.97532   2.43829
    3175.00   4.501744     0.1221E+02  -0.97671   2.44178
    3185.00   4.503109     0.1216E+02  -0.97853   2.44632
    3195.00   4.504471     0.1212E+02  -0.97981   2.44953
    3210.00   4.506505     0.1203E+02  -0.98326   2.45815
    3230.00   4.509202     0.1189E+02  -0.98817   2.47041
    3250.00   4.511883     0.1178E+02  -0.99242   2.48104
    3270.00   4.514548     0.1163E+02  -0.99798   2.49495
    3290.00   4.517196     0.1145E+02  -1.00454   2.51135
    3310.00   4.519828     0.1133E+02  -1.00911   2.52277
    3330.00   4.522444     0.1116E+02  -1.01554   2.53885
    3350.00   4.525045     0.1102E+02  -1.02117   2.55292
    3370.00   4.527630     0.1085E+02  -1.02790   2.56974
    3390.00   4.530200     0.1067E+02  -1.03538   2.58846
    3410.00   4.532754     0.1048E+02  -1.04302   2.60754
    3430.00   4.535294     0.1033E+02  -1.04947   2.62368
    3450.00   4.537819     0.1015E+02  -1.05700   2.64250
    3470.00   4.540329     0.9966E+01  -1.06485   2.66212
    3490.00   4.542826     0.9800E+01  -1.07217   2.68042
    3510.00   4.545307     0.9634E+01  -1.07959   2.69898
    3530.00   4.547775     0.9452E+01  -1.08784   2.71961
    3550.00   4.550228     0.9294E+01  -1.09519   2.73798
    3570.00   4.552669     0.9124E+01  -1.10321   2.75803
    3590.00   4.555095     0.8964E+01  -1.11086   2.77716
    3610.00   4.557508     0.8813E+01  -1.11825   2.79562
    3630.00   4.559907     0.8649E+01  -1.12640   2.81600
    3650.00   4.562293     0.8481E+01  -1.13494   2.83734
    3670.00   4.564666     0.8326E+01  -1.14296   2.85740
    3690.00   4.567026     0.8157E+01  -1.15188   2.87970
    3710.00   4.569374     0.8001E+01  -1.16027   2.90067
    3730.00   4.571709     0.7873E+01  -1.16722   2.91806
    3750.00   4.574031     0.7707E+01  -1.17651   2.94127
    3770.00   4.576342     0.7589E+01  -1.18322   2.95805
    3790.00   4.578639     0.7440E+01  -1.19180   2.97949
    3810.00   4.580925     0.7307E+01  -1.19966   2.99915
    3830.00   4.583199     0.7182E+01  -1.20717   3.01793
    3850.00   4.585461     0.7051E+01  -1.21514   3.03785
    3870.00   4.587711     0.6904E+01  -1.22430   3.06076
    3890.00   4.589950     0.6781E+01  -1.23208   3.08019
    3910.00   4.592176     0.6660E+01  -1.23990   3.09974
    3930.00   4.594393     0.6536E+01  -1.24807   3.12017
    3950.00   4.596597     0.6398E+01  -1.25737   3.14343
    3970.00   4.598790     0.6284E+01  -1.26515   3.16288
    3990.00   4.600973     0.6149E+01  -1.27460   3.18650
    4010.00   4.603145     0.6048E+01  -1.28176   3.20441
    4030.00   4.605305     0.5945E+01  -1.28926   3.22316
    4050.00   4.607455     0.5827E+01  -1.29794   3.24485
    4070.00   4.609594     0.5723E+01  -1.30577   3.26443
    4090.00   4.611723     0.5618E+01  -1.31380   3.28449
    4110.00   4.613842     0.5524E+01  -1.32110   3.30275
    4130.00   4.615950     0.5435E+01  -1.32815   3.32038
    4150.00   4.618048     0.5340E+01  -1.33582   3.33955
    4170.00   4.620136     0.5252E+01  -1.34309   3.35772
    4190.00   4.622214     0.5160E+01  -1.35075   3.37688
    4210.00   4.624282     0.5069E+01  -1.35846   3.39616
    4230.00   4.626340     0.5001E+01  -1.36436   3.41091
    4250.00   4.628389     0.4911E+01  -1.37225   3.43062
    4270.00   4.630428     0.4836E+01  -1.37887   3.44717
    4290.00   4.632457     0.4661E+01  -1.39490   3.48724
    4310.00   4.634478     0.4475E+01  -1.41258   3.53145
    4330.00   4.636488     0.4441E+01  -1.41587   3.53966
    4350.00   4.638489     0.4296E+01  -1.43033   3.57584
    4370.00   4.640481     0.4197E+01  -1.44049   3.60123
    4390.00   4.642465     0.4117E+01  -1.44876   3.62191
    4410.00   4.644439     0.3999E+01  -1.46144   3.65360
    4430.00   4.646404     0.3937E+01  -1.46822   3.67054
    4450.00   4.648360     0.3871E+01  -1.47556   3.68889
    4470.00   4.650308     0.3771E+01  -1.48698   3.71746
    4490.00   4.652246     0.3741E+01  -1.49040   3.72600
    4510.00   4.654177     0.3663E+01  -1.49951   3.74878
    4530.00   4.656098     0.3588E+01  -1.50851   3.77126
    4550.00   4.658011     0.3554E+01  -1.51270   3.78175
    4570.00   4.659916     0.3506E+01  -1.51854   3.79635
    4590.00   4.661813     0.3423E+01  -1.52898   3.82246
    4610.00   4.663701     0.3403E+01  -1.53157   3.82892
    4630.00   4.665581     0.3343E+01  -1.53921   3.84801
    4650.00   4.667453     0.3304E+01  -1.54439   3.86097
    4670.00   4.669317     0.3272E+01  -1.54862   3.87155
    4690.00   4.671173     0.3215E+01  -1.55622   3.89054
    4710.00   4.673021     0.3164E+01  -1.56311   3.90778
    4730.00   4.674861     0.3147E+01  -1.56554   3.91384
    4750.00   4.676694     0.3087E+01  -1.57389   3.93471
    4770.00   4.678518     0.3045E+01  -1.57977   3.94943
    4790.00   4.680336     0.3012E+01  -1.58459   3.96149
    4810.00   4.682145     0.2950E+01  -1.59350   3.98375
    4830.00   4.683947     0.2937E+01  -1.59544   3.98859
    4850.00   4.685741     0.2889E+01  -1.60262   4.00655
    4870.00   4.687529     0.2840E+01  -1.61004   4.02510
    4890.00   4.689309     0.2801E+01  -1.61610   4.04026
    4910.00   4.691082     0.2766E+01  -1.62161   4.05403
    4930.00   4.692847     0.2724E+01  -1.62811   4.07029
    4950.00   4.694605     0.2682E+01  -1.63494   4.08735
    4970.00   4.696356     0.2656E+01  -1.63917   4.09792
    4990.00   4.698101     0.2619E+01  -1.64523   4.11308
    5010.00   4.699838     0.2584E+01  -1.65105   4.12763
    5030.00   4.701568     0.2550E+01  -1.65690   4.14226
    5050.00   4.703291     0.2505E+01  -1.66456   4.16141
    5070.00   4.705008     0.2480E+01  -1.66900   4.17251
    5090.00   4.706717     0.2447E+01  -1.67484   4.18710
    5110.00   4.708421     0.2408E+01  -1.68166   4.20415
    5130.00   4.710117     0.2386E+01  -1.68569   4.21423
    5150.00   4.711807     0.2348E+01  -1.69272   4.23180
    5170.00   4.713490     0.2328E+01  -1.69635   4.24087
    5190.00   4.715167     0.2291E+01  -1.70329   4.25822
    5210.00   4.716838     0.2265E+01  -1.70831   4.27078
    5230.00   4.718502     0.2229E+01  -1.71519   4.28797
    5250.00   4.720160     0.2207E+01  -1.71958   4.29894
    5270.00   4.721810     0.2188E+01  -1.72329   4.30824
    5290.00   4.723455     0.2148E+01  -1.73132   4.32831
    5310.00   4.725095     0.2120E+01  -1.73696   4.34241
    5330.00   4.726727     0.2098E+01  -1.74149   4.35372
    5350.00   4.728354     0.2073E+01  -1.74689   4.36723
    5370.00   4.729974     0.2048E+01  -1.75201   4.38002
    5390.00   4.731589     0.2024E+01  -1.75722   4.39304
    5410.00   4.733197     0.1999E+01  -1.76252   4.40630
    5430.00   4.734800     0.1967E+01  -1.76949   4.42372
    5450.00   4.736397     0.1952E+01  -1.77298   4.43246
    5470.00   4.737988     0.1923E+01  -1.77948   4.44869
    5490.00   4.739573     0.1901E+01  -1.78435   4.46087
    5510.00   4.741152     0.1877E+01  -1.78999   4.47497
    5530.00   4.742725     0.1869E+01  -1.79187   4.47968
    5550.00   4.744293     0.1830E+01  -1.80084   4.50210
    5570.00   4.745855     0.1818E+01  -1.80372   4.50930
    5590.00   4.747412     0.1791E+01  -1.81019   4.52547
    5610.00   4.748963     0.1774E+01  -1.81434   4.53585
    5630.00   4.750508     0.1747E+01  -1.82117   4.55292
    5650.00   4.752048     0.1732E+01  -1.82475   4.56187
    5670.00   4.753583     0.1712E+01  -1.82998   4.57494
    5690.00   4.755112     0.1685E+01  -1.83669   4.59172
    5710.00   4.756636     0.1673E+01  -1.83995   4.59987
    5730.00   4.758155     0.1652E+01  -1.84539   4.61348
    5750.00   4.759668     0.1632E+01  -1.85057   4.62642
    5770.00   4.761176     0.1612E+01  -1.85612   4.64030
    5790.00   4.762679     0.1597E+01  -1.86012   4.65030
    5810.00   4.764176     0.1574E+01  -1.86627   4.66567
    5830.00   4.765669     0.1557E+01  -1.87111   4.67779
    5850.00   4.767156     0.1539E+01  -1.87610   4.69025
    5870.00   4.768638     0.1518E+01  -1.88220   4.70551
    5890.00   4.770115     0.1501E+01  -1.88702   4.71754
    5910.00   4.771587     0.1485E+01  -1.89179   4.72947
    5930.00   4.773055     0.1468E+01  -1.89664   4.74159
    5950.00   4.774517     0.1449E+01  -1.90235   4.75588
    5970.00   4.775974     0.1435E+01  -1.90662   4.76656
    5990.00   4.777427     0.1418E+01  -1.91171   4.77927
    6010.00   4.778874     0.1402E+01  -1.91679   4.79198
    6030.00   4.780317     0.1385E+01  -1.92192   4.80480
    6050.00   4.781755     0.1367E+01  -1.92766   4.81915
    6070.00   4.783189     0.1351E+01  -1.93258   4.83145
    6090.00   4.784617     0.1336E+01  -1.93768   4.84420
    6110.00   4.786041     0.1319E+01  -1.94302   4.85755
    6130.00   4.787460     0.1306E+01  -1.94750   4.86875
    6150.00   4.788875     0.1292E+01  -1.95228   4.88071
    6170.00   4.790285     0.1278E+01  -1.95690   4.89226
    6190.00   4.791691     0.1263E+01  -1.96201   4.90503
    6210.00   4.793092     0.1249E+01  -1.96670   4.91676
    6230.00   4.794488     0.1234E+01  -1.97218   4.93044
    6250.00   4.795880     0.1218E+01  -1.97760   4.94399
    6270.00   4.797267     0.1205E+01  -1.98257   4.95641
    6290.00   4.798651     0.1192E+01  -1.98719   4.96798
    6310.00   4.800029     0.1178E+01  -1.99235   4.98088
    6330.00   4.801404     0.1166E+01  -1.99651   4.99128
    6350.00   4.802773     0.1152E+01  -2.00183   5.00456
    6370.00   4.804139     0.1141E+01  -2.00610   5.01524
    6390.00   4.805501     0.1127E+01  -2.01166   5.02914
    6420.00   4.807535     0.1108E+01  -2.01870   5.04676
    6460.00   4.810232     0.1083E+01  -2.02866   5.07165
    6500.00   4.812913     0.1059E+01  -2.03829   5.09573
    6540.00   4.815578     0.1036E+01  -2.04793   5.11983
    6580.00   4.818226     0.1014E+01  -2.05731   5.14328
    6620.00   4.820858     0.9916E+00  -2.06704   5.16760
    6660.00   4.823474     0.9703E+00  -2.07648   5.19121
    6700.00   4.826075     0.9495E+00  -2.08591   5.21478
    6740.00   4.828660     0.9287E+00  -2.09552   5.23881
    6780.00   4.831230     0.9089E+00  -2.10487   5.26218
    6820.00   4.833784     0.8894E+00  -2.11431   5.28577
    6860.00   4.836324     0.8708E+00  -2.12345   5.30862
    6900.00   4.838849     0.8523E+00  -2.13280   5.33201
    6940.00   4.841359     0.8344E+00  -2.14201   5.35502
    6980.00   4.843855     0.8170E+00  -2.15116   5.37789
    7020.00   4.846337     0.7997E+00  -2.16045   5.40112
    7060.00   4.848804     0.7834E+00  -2.16942   5.42355
    7100.00   4.851258     0.7672E+00  -2.17851   5.44627
    7140.00   4.853698     0.7515E+00  -2.18747   5.46868
    7180.00   4.856124     0.7360E+00  -2.19650   5.49125
    7220.00   4.858537     0.7211E+00  -2.20539   5.51348
    7260.00   4.860937     0.7064E+00  -2.21433   5.53584
    7300.00   4.863323     0.6922E+00  -2.22315   5.55787
    7340.00   4.865696     0.6782E+00  -2.23205   5.58013
    7380.00   4.868056     0.6647E+00  -2.24074   5.60186
    7420.00   4.870404     0.6511E+00  -2.24976   5.62440
    7460.00   4.872739     0.6382E+00  -2.25842   5.64604
    7500.00   4.875061     0.6258E+00  -2.26699   5.66747
    7540.00   4.877371     0.6133E+00  -2.27569   5.68923
    7580.00   4.879669     0.6017E+00  -2.28399   5.70997
    7620.00   4.881955     0.5900E+00  -2.29251   5.73127
    7660.00   4.884229     0.5786E+00  -2.30100   5.75249
    7700.00   4.886491     0.5674E+00  -2.30950   5.77376
    7740.00   4.888741     0.5566E+00  -2.31785   5.79464
    7780.00   4.890980     0.5460E+00  -2.32620   5.81550
    7820.00   4.893207     0.5356E+00  -2.33455   5.83636
    7860.00   4.895422     0.5255E+00  -2.34282   5.85706
    7900.00   4.897627     0.5156E+00  -2.35109   5.87772
    7940.00   4.899820     0.5059E+00  -2.35929   5.89823
    7980.00   4.902003     0.4965E+00  -2.36744   5.91860
    8020.00   4.904174     0.4871E+00  -2.37574   5.93936
    8060.00   4.906335     0.4782E+00  -2.38381   5.95953
    8100.00   4.908485     0.4695E+00  -2.39179   5.97948
    8140.00   4.910625     0.4608E+00  -2.39987   5.99969
    8180.00   4.912753     0.4525E+00  -2.40777   6.01944
    8220.00   4.914872     0.4443E+00  -2.41572   6.03929
    8260.00   4.916980     0.4362E+00  -2.42366   6.05915
    8300.00   4.919078     0.4284E+00  -2.43154   6.07884
    8340.00   4.921166     0.4206E+00  -2.43949   6.09874
    8380.00   4.923244     0.4131E+00  -2.44733   6.11832
    8420.00   4.925312     0.4059E+00  -2.45499   6.13748
    8460.00   4.927370     0.3987E+00  -2.46278   6.15695
    8500.00   4.929419     0.3917E+00  -2.47047   6.17618
    8540.00   4.931458     0.3848E+00  -2.47812   6.19530
    8580.00   4.933487     0.3781E+00  -2.48573   6.21433
    8620.00   4.935507     0.3716E+00  -2.49333   6.23333
    8660.00   4.937518     0.3652E+00  -2.50088   6.25220
    8700.00   4.939519     0.3589E+00  -2.50844   6.27110
    8740.00   4.941511     0.3527E+00  -2.51594   6.28984
    8780.00   4.943495     0.3467E+00  -2.52343   6.30859
    8820.00   4.945469     0.3408E+00  -2.53094   6.32735
    8860.00   4.947433     0.3350E+00  -2.53834   6.34584
    8900.00   4.949390     0.3293E+00  -2.54576   6.36439
    8940.00   4.951338     0.3239E+00  -2.55304   6.38259
    8980.00   4.953277     0.3183E+00  -2.56051   6.40127
    9020.00   4.955207     0.3131E+00  -2.56765   6.41912
    9060.00   4.957129     0.3080E+00  -2.57488   6.43719
    9100.00   4.959042     0.3027E+00  -2.58234   6.45585
    9140.00   4.960946     0.2978E+00  -2.58939   6.47348
    9180.00   4.962843     0.2930E+00  -2.59657   6.49143
    9220.00   4.964731     0.2883E+00  -2.60360   6.50901
    9260.00   4.966611     0.2836E+00  -2.61073   6.52683
    9300.00   4.968483     0.2790E+00  -2.61780   6.54450
    9340.00   4.970347     0.2745E+00  -2.62488   6.56220
    9380.00   4.972203     0.2701E+00  -2.63188   6.57971
    9420.00   4.974051     0.2658E+00  -2.63888   6.59720
    9460.00   4.975891     0.2615E+00  -2.64589   6.61472
    9500.00   4.977724     0.2574E+00  -2.65282   6.63205
    9540.00   4.979548     0.2533E+00  -2.65973   6.64932
    9580.00   4.981365     0.2493E+00  -2.66659   6.66648
    9620.00   4.983175     0.2454E+00  -2.67348   6.68369
    9660.00   4.984977     0.2416E+00  -2.68029   6.70073
    9700.00   4.986772     0.2378E+00  -2.68709   6.71772
    9740.00   4.988559     0.2341E+00  -2.69408   6.73519
    9780.00   4.990339     0.2305E+00  -2.70069   6.75173
    9820.00   4.992111     0.2270E+00  -2.70737   6.76841
    9860.00   4.993877     0.2235E+00  -2.71407   6.78517
    9900.00   4.995635     0.2201E+00  -2.72073   6.80182
    9940.00   4.997386     0.2168E+00  -2.72741   6.81854
    9980.00   4.999130     0.2135E+00  -2.73403   6.83507
   10020.00   5.000868     0.2103E+00  -2.74062   6.85156
   20000.00   5.301030     0.1460E-01  -3.89896   9.74740
   40000.00   5.602060     0.9554E-03  -5.08321  12.70803
   60000.00   5.778151     0.1913E-03  -5.78166  14.45415
   80000.00   5.903090     0.6089E-04  -6.27882  15.69705
  100000.00   6.000000     0.2502E-04  -6.66513  16.66281
  120000.00   6.079181     0.1209E-04  -6.98110  17.45276
  140000.00   6.146128     0.6530E-05  -7.24848  18.12120
  160000.00   6.204120     0.3830E-05  -7.48021  18.70053
