age =    8.0    [Fe/H] =    0.25

wavele(nm) log wave(A)   Hlam       log(Hlam/Hlam(V))  Hlam(mag(V)) 
      90.50   2.956649     0.4731E-14 -16.56905  41.42263
      91.50   2.961421     0.2119E-12 -14.91780  37.29450
      92.50   2.966142     0.6217E-11 -13.45046  33.62616
      93.50   2.970812     0.8781E-11 -13.30048  33.25121
      94.50   2.975432     0.1303E-10 -13.12894  32.82235
      95.50   2.980003     0.1985E-10 -12.94635  32.36587
      96.50   2.984527     0.2986E-10 -12.76897  31.92243
      97.50   2.989005     0.4066E-10 -12.63488  31.58720
      98.50   2.993436     0.5740E-10 -12.48512  31.21280
      99.50   2.997823     0.7869E-10 -12.34809  30.87023
     100.50   3.002166     0.1194E-09 -12.16701  30.41751
     101.50   3.006466     0.1653E-09 -12.02576  30.06440
     102.50   3.010724     0.1973E-09 -11.94885  29.87213
     103.50   3.014940     0.3193E-09 -11.73978  29.34944
     104.50   3.019116     0.4434E-09 -11.59725  28.99311
     105.50   3.023252     0.5733E-09 -11.48561  28.71404
     106.50   3.027350     0.7806E-09 -11.35158  28.37894
     107.50   3.031409     0.1065E-08 -11.21679  28.04197
     108.50   3.035430     0.1434E-08 -11.08747  27.71869
     109.50   3.039414     0.1801E-08 -10.98858  27.47144
     110.50   3.043362     0.4692E-08 -10.57268  26.43171
     111.50   3.047275     0.7210E-08 -10.38610  25.96525
     112.50   3.051152     0.1034E-07 -10.22941  25.57354
     113.50   3.054996     0.1507E-07 -10.06602  25.16506
     114.50   3.058805     0.2020E-07  -9.93858  24.84645
     115.50   3.062582     0.2437E-07  -9.85710  24.64274
     116.50   3.066326     0.3330E-07  -9.72160  24.30401
     117.50   3.070038     0.4308E-07  -9.60976  24.02439
     118.50   3.073718     0.5009E-07  -9.54425  23.86064
     119.50   3.077368     0.4884E-07  -9.55521  23.88803
     120.50   3.080987     0.5959E-07  -9.46882  23.67204
     121.50   3.084576     0.2362E-07  -9.87073  24.67683
     122.50   3.088136     0.8520E-07  -9.31356  23.28390
     123.50   3.091667     0.1363E-06  -9.10966  22.77416
     124.50   3.095169     0.1743E-06  -9.00271  22.50677
     125.50   3.098644     0.2071E-06  -8.92788  22.31969
     126.50   3.102091     0.2321E-06  -8.87834  22.19585
     127.50   3.105510     0.2823E-06  -8.79338  21.98344
     128.50   3.108903     0.3163E-06  -8.74392  21.85980
     129.50   3.112270     0.3865E-06  -8.65687  21.64217
     130.50   3.115611     0.4172E-06  -8.62364  21.55910
     131.50   3.118926     0.5223E-06  -8.52611  21.31528
     132.50   3.122216     0.5511E-06  -8.50280  21.25699
     133.50   3.125481     0.6226E-06  -8.44978  21.12446
     134.50   3.128722     0.7473E-06  -8.37052  20.92631
     135.50   3.131939     0.8914E-06  -8.29395  20.73487
     136.50   3.135133     0.9691E-06  -8.25766  20.64415
     137.50   3.138303     0.1071E-05  -8.21423  20.53557
     138.50   3.141450     0.1195E-05  -8.16660  20.41651
     139.50   3.144574     0.1367E-05  -8.10825  20.27061
     140.50   3.147676     0.1686E-05  -8.01728  20.04319
     141.50   3.150756     0.1950E-05  -7.95402  19.88506
     142.50   3.153815     0.2286E-05  -7.88489  19.71222
     143.50   3.156852     0.2761E-05  -7.80298  19.50745
     144.20   3.158965     0.3528E-05  -7.69644  19.24111
     144.70   3.160469     0.3245E-05  -7.73278  19.33194
     145.50   3.162863     0.3825E-05  -7.66143  19.15356
     146.50   3.165838     0.4945E-05  -7.54986  18.87465
     147.50   3.168792     0.5709E-05  -7.48743  18.71857
     148.50   3.171726     0.6230E-05  -7.44955  18.62388
     149.50   3.174641     0.8138E-05  -7.33350  18.33375
     150.50   3.177536     0.1002E-04  -7.24332  18.10829
     151.20   3.179552     0.7879E-05  -7.34753  18.36883
     151.70   3.180986     0.9964E-05  -7.24556  18.11390
     152.50   3.183270     0.2508E-04  -6.84462  17.11155
     153.50   3.186108     0.4332E-04  -6.60734  16.51836
     154.50   3.188928     0.3547E-04  -6.69414  16.73535
     155.50   3.191730     0.6117E-04  -6.45747  16.14368
     156.50   3.194514     0.5795E-04  -6.48093  16.20231
     157.50   3.197281     0.1208E-03  -6.16202  15.40504
     158.50   3.200029     0.1482E-03  -6.07329  15.18323
     159.50   3.202761     0.1749E-03  -6.00113  15.00282
     160.50   3.205475     0.1865E-03  -5.97330  14.93326
     161.50   3.208173     0.2038E-03  -5.93488  14.83720
     162.50   3.210853     0.2321E-03  -5.87840  14.69601
     163.50   3.213518     0.2806E-03  -5.79599  14.48996
     164.50   3.216166     0.4067E-03  -5.63476  14.08689
     165.50   3.218798     0.2685E-03  -5.81504  14.53760
     166.50   3.221414     0.4821E-03  -5.56090  13.90225
     167.20   3.223236     0.3329E-03  -5.72168  14.30421
     167.70   3.224533     0.1431E-02  -5.08838  12.72095
     168.50   3.226600     0.1601E-02  -5.03949  12.59874
     169.50   3.229170     0.2049E-02  -4.93256  12.33139
     170.50   3.231725     0.2192E-02  -4.90319  12.25798
     171.50   3.234264     0.2075E-02  -4.92700  12.31750
     172.50   3.236789     0.2751E-02  -4.80451  12.01126
     173.50   3.239300     0.3320E-02  -4.72283  11.80706
     174.50   3.241796     0.4681E-02  -4.57371  11.43427
     175.50   3.244277     0.6353E-02  -4.44104  11.10260
     176.50   3.246745     0.6045E-02  -4.46260  11.15651
     177.50   3.249198     0.6474E-02  -4.43285  11.08213
     178.50   3.251638     0.8717E-02  -4.30367  10.75917
     179.50   3.254065     0.1039E-01  -4.22747  10.56868
     180.50   3.256477     0.1151E-01  -4.18300  10.45750
     181.50   3.258877     0.1078E-01  -4.21125  10.52811
     182.50   3.261263     0.1410E-01  -4.09467  10.23668
     183.50   3.263636     0.1456E-01  -4.08090  10.20224
     184.50   3.265996     0.1125E-01  -4.19269  10.48172
     185.50   3.268344     0.1599E-01  -4.04029  10.10073
     186.50   3.270679     0.1899E-01  -3.96554   9.91385
     187.50   3.273001     0.2066E-01  -3.92878   9.82196
     188.50   3.275311     0.2235E-01  -3.89475   9.73687
     189.50   3.277609     0.2964E-01  -3.77213   9.43032
     190.50   3.279895     0.2893E-01  -3.78259   9.45648
     191.50   3.282169     0.3251E-01  -3.73198   9.32994
     192.50   3.284431     0.3307E-01  -3.72457   9.31142
     193.50   3.286681     0.2310E-01  -3.88043   9.70107
     194.50   3.288920     0.4332E-01  -3.60734   9.01836
     195.50   3.291147     0.4601E-01  -3.58118   8.95294
     196.70   3.293804     0.5982E-01  -3.46719   8.66797
     197.60   3.295787     0.5852E-01  -3.47670   8.69176
     198.40   3.297542     0.6809E-01  -3.41091   8.52729
     199.50   3.299943     0.6965E-01  -3.40108   8.50270
     200.50   3.302114     0.6893E-01  -3.40559   8.51398
     201.50   3.304275     0.7627E-01  -3.36165   8.40413
     202.50   3.306425     0.6304E-01  -3.44442   8.61105
     203.50   3.308564     0.8620E-01  -3.30852   8.27130
     204.50   3.310693     0.9950E-01  -3.24618   8.11545
     205.50   3.312812     0.1050E+00  -3.22285   8.05712
     206.50   3.314920     0.1054E+00  -3.22104   8.05261
     207.40   3.316809     0.1136E+00  -3.18860   7.97150
     207.80   3.317646     0.2734E+00  -2.80722   7.01805
     208.50   3.319106     0.3633E+00  -2.68376   6.70940
     209.50   3.321184     0.3421E+00  -2.70986   6.77465
     210.50   3.323252     0.3524E+00  -2.69703   6.74257
     211.50   3.325310     0.4121E+00  -2.62898   6.57245
     212.50   3.327359     0.3691E+00  -2.67692   6.69230
     213.50   3.329398     0.3860E+00  -2.65739   6.64347
     214.50   3.331427     0.4941E+00  -2.55022   6.37554
     215.50   3.333447     0.4651E+00  -2.57648   6.44120
     216.50   3.335458     0.4306E+00  -2.60995   6.52488
     217.50   3.337459     0.4267E+00  -2.61389   6.53472
     218.50   3.339452     0.5762E+00  -2.48342   6.20855
     219.50   3.341434     0.5678E+00  -2.48980   6.22449
     220.50   3.343409     0.5783E+00  -2.48182   6.20456
     221.50   3.345374     0.4503E+00  -2.59050   6.47625
     222.50   3.347330     0.5739E+00  -2.48518   6.21296
     223.50   3.349277     0.8064E+00  -2.33747   5.84367
     224.50   3.351216     0.7867E+00  -2.34818   5.87046
     225.50   3.353147     0.6247E+00  -2.44831   6.12076
     226.50   3.355068     0.5265E+00  -2.52263   6.30658
     227.50   3.356982     0.5994E+00  -2.46629   6.16573
     228.50   3.358886     0.9093E+00  -2.28531   5.71328
     229.50   3.360783     0.7338E+00  -2.37845   5.94612
     230.50   3.362671     0.8820E+00  -2.29854   5.74635
     231.50   3.364551     0.7829E+00  -2.35033   5.87582
     232.50   3.366423     0.7275E+00  -2.38216   5.95539
     233.50   3.368287     0.6976E+00  -2.40042   6.00105
     234.50   3.370143     0.4596E+00  -2.58164   6.45409
     235.50   3.371991     0.8385E+00  -2.32052   5.80130
     236.50   3.373831     0.5456E+00  -2.50713   6.26782
     237.50   3.375664     0.6962E+00  -2.40127   6.00318
     238.50   3.377488     0.4563E+00  -2.58472   6.46179
     239.50   3.379306     0.5719E+00  -2.48668   6.21669
     240.50   3.381115     0.6193E+00  -2.45209   6.13023
     241.50   3.382917     0.6352E+00  -2.44112   6.10279
     242.50   3.384712     0.1089E+01  -2.20694   5.51735
     243.50   3.386499     0.1164E+01  -2.17802   5.44505
     244.50   3.388279     0.1433E+01  -2.08781   5.21953
     245.50   3.390052     0.1566E+01  -2.04918   5.12294
     246.50   3.391817     0.1238E+01  -2.15141   5.37852
     247.50   3.393575     0.1104E+01  -2.20117   5.50294
     248.50   3.395326     0.4852E+00  -2.55812   6.39530
     249.50   3.397071     0.7413E+00  -2.37403   5.93508
     250.50   3.398808     0.1262E+01  -2.14304   5.35760
     251.30   3.400192     0.5672E+00  -2.49026   6.22565
     251.80   3.401056     0.3961E+00  -2.64622   6.61556
     252.50   3.402261     0.4631E+00  -2.57836   6.44591
     253.50   3.403978     0.1022E+01  -2.23441   5.58604
     254.50   3.405688     0.1097E+01  -2.20385   5.50964
     255.50   3.407391     0.2654E+01  -1.82011   4.55027
     256.50   3.409087     0.1803E+01  -1.98801   4.97001
     257.50   3.410777     0.2561E+01  -1.83555   4.58889
     258.50   3.412461     0.2268E+01  -1.88833   4.72084
     259.50   3.414137     0.2076E+01  -1.92677   4.81693
     260.50   3.415808     0.1838E+01  -1.97967   4.94917
     261.50   3.417472     0.1639E+01  -2.02949   5.07372
     262.50   3.419129     0.2348E+01  -1.87336   4.68341
     263.50   3.420781     0.4831E+01  -1.56000   3.89999
     264.50   3.422426     0.6402E+01  -1.43770   3.59424
     265.50   3.424065     0.1068E+02  -1.21531   3.03827
     266.50   3.425697     0.5663E+01  -1.49096   3.72739
     267.50   3.427324     0.6501E+01  -1.43104   3.57759
     268.50   3.428944     0.8206E+01  -1.32987   3.32468
     269.50   3.430559     0.5316E+01  -1.51843   3.79607
     270.50   3.432167     0.7335E+01  -1.37863   3.44656
     271.50   3.433770     0.4873E+01  -1.55623   3.89058
     272.50   3.435366     0.3074E+01  -1.75634   4.39086
     273.50   3.436957     0.4435E+01  -1.59716   3.99291
     274.50   3.438542     0.2640E+01  -1.82248   4.55619
     275.50   3.440122     0.3788E+01  -1.66565   4.16413
     276.50   3.441695     0.5217E+01  -1.52662   3.81656
     277.50   3.443263     0.5539E+01  -1.50061   3.75151
     278.50   3.444825     0.3219E+01  -1.73624   4.34060
     279.50   3.446382     0.1413E+01  -2.09391   5.23479
     280.50   3.447933     0.1756E+01  -1.99942   4.99855
     281.50   3.449478     0.4929E+01  -1.55129   3.87822
     282.50   3.451018     0.7188E+01  -1.38741   3.46852
     283.50   3.452553     0.6440E+01  -1.43511   3.58779
     284.50   3.454082     0.3769E+01  -1.66776   4.16940
     285.50   3.455606     0.1806E+01  -1.98737   4.96842
     286.50   3.457125     0.5870E+01  -1.47539   3.68847
     287.50   3.458638     0.1022E+02  -1.23446   3.08615
     288.50   3.460146     0.9328E+01  -1.27421   3.18552
     289.50   3.461648     0.1292E+02  -1.13264   2.83160
     291.00   3.463893     0.1917E+02  -0.96137   2.40341
     293.00   3.466868     0.1705E+02  -1.01218   2.53045
     295.00   3.469822     0.1596E+02  -1.04107   2.60267
     297.00   3.472756     0.1693E+02  -1.01526   2.53816
     299.00   3.475671     0.1764E+02  -0.99760   2.49400
     301.00   3.478566     0.1715E+02  -1.00966   2.52416
     303.00   3.481443     0.1958E+02  -0.95228   2.38070
     305.00   3.484300     0.2012E+02  -0.94043   2.35107
     307.00   3.487138     0.2227E+02  -0.89636   2.24090
     309.00   3.489959     0.2046E+02  -0.93318   2.33295
     311.00   3.492760     0.2576E+02  -0.83300   2.08250
     313.00   3.495544     0.2302E+02  -0.88192   2.20480
     315.00   3.498311     0.2359E+02  -0.87130   2.17826
     317.00   3.501059     0.2709E+02  -0.81116   2.02790
     319.00   3.503791     0.2252E+02  -0.89144   2.22861
     321.00   3.506505     0.2514E+02  -0.84361   2.10904
     323.00   3.509202     0.2085E+02  -0.92482   2.31205
     325.00   3.511883     0.3168E+02  -0.74325   1.85814
     327.00   3.514548     0.3778E+02  -0.66673   1.66683
     329.00   3.517196     0.3708E+02  -0.67491   1.68726
     331.00   3.519828     0.3378E+02  -0.71531   1.78828
     333.00   3.522444     0.3552E+02  -0.69357   1.73393
     335.00   3.525045     0.3439E+02  -0.70761   1.76902
     337.00   3.527630     0.2427E+02  -0.85894   2.14735
     339.00   3.530200     0.2841E+02  -0.79050   1.97625
     341.00   3.532754     0.2946E+02  -0.77472   1.93679
     343.00   3.535294     0.3115E+02  -0.75049   1.87624
     345.00   3.537819     0.3474E+02  -0.70312   1.75781
     347.00   3.540329     0.3648E+02  -0.68192   1.70480
     349.00   3.542825     0.4181E+02  -0.62277   1.55692
     351.00   3.545307     0.4465E+02  -0.59418   1.48544
     353.00   3.547775     0.3873E+02  -0.65595   1.63987
     355.00   3.550228     0.4418E+02  -0.59882   1.49704
     357.00   3.552668     0.2949E+02  -0.77435   1.93588
     359.00   3.555094     0.3159E+02  -0.74448   1.86121
     361.00   3.557507     0.4169E+02  -0.62396   1.55991
     363.00   3.559907     0.4437E+02  -0.59692   1.49229
     364.00   3.561101     0.4506E+02  -0.59023   1.47557
     365.00   3.562293     0.5062E+02  -0.53965   1.34913
     367.00   3.564666     0.5549E+02  -0.49978   1.24944
     369.00   3.567026     0.4796E+02  -0.56309   1.40773
     371.00   3.569374     0.5005E+02  -0.54460   1.36149
     373.00   3.571709     0.2987E+02  -0.76878   1.92196
     375.00   3.574031     0.3465E+02  -0.70436   1.76091
     377.00   3.576341     0.4820E+02  -0.56094   1.40234
     379.00   3.578639     0.4940E+02  -0.55030   1.37574
     381.00   3.580925     0.4424E+02  -0.59819   1.49547
     383.00   3.583199     0.2280E+02  -0.88613   2.21533
     385.00   3.585461     0.3154E+02  -0.74519   1.86297
     387.00   3.587711     0.3161E+02  -0.74422   1.86054
     389.00   3.589950     0.4561E+02  -0.58495   1.46238
     391.00   3.592177     0.5719E+02  -0.48666   1.21665
     393.00   3.594393     0.2577E+02  -0.83282   2.08206
     395.00   3.596597     0.4752E+02  -0.56717   1.41793
     397.00   3.598790     0.3248E+02  -0.73241   1.83103
     399.00   3.600973     0.7881E+02  -0.34741   0.86853
     401.00   3.603144     0.8912E+02  -0.29403   0.73508
     403.00   3.605305     0.8795E+02  -0.29977   0.74941
     405.00   3.607455     0.8371E+02  -0.32122   0.80306
     407.00   3.609594     0.7739E+02  -0.35533   0.88833
     409.00   3.611723     0.1019E+03  -0.23583   0.58957
     411.00   3.613842     0.9566E+02  -0.26326   0.65815
     413.00   3.615950     0.9039E+02  -0.28791   0.71976
     415.00   3.618048     0.8824E+02  -0.29833   0.74583
     417.00   3.620136     0.8999E+02  -0.28984   0.72459
     419.00   3.622214     0.8899E+02  -0.29468   0.73669
     421.00   3.624282     0.9055E+02  -0.28713   0.71784
     423.00   3.626340     0.8235E+02  -0.32836   0.82091
     425.00   3.628389     0.9361E+02  -0.27268   0.68170
     427.00   3.630428     0.8742E+02  -0.30242   0.75604
     429.00   3.632457     0.8176E+02  -0.33147   0.82868
     431.00   3.634477     0.7139E+02  -0.39039   0.97597
     433.00   3.636488     0.1098E+03  -0.20341   0.50852
     435.00   3.638489     0.1117E+03  -0.19579   0.48947
     437.00   3.640481     0.1222E+03  -0.15695   0.39238
     439.00   3.642465     0.1047E+03  -0.22390   0.55974
     441.00   3.644439     0.1114E+03  -0.19725   0.49311
     443.00   3.646404     0.1208E+03  -0.16186   0.40464
     445.00   3.648360     0.1233E+03  -0.15320   0.38299
     447.00   3.650307     0.1344E+03  -0.11557   0.28892
     449.00   3.652246     0.1392E+03  -0.10037   0.25092
     451.00   3.654176     0.1640E+03  -0.02905   0.07263
     453.00   3.656098     0.1383E+03  -0.10324   0.25811
     455.00   3.658011     0.1470E+03  -0.07668   0.19171
     457.00   3.659916     0.1625E+03  -0.03323   0.08306
     459.00   3.661813     0.1516E+03  -0.06345   0.15861
     461.00   3.663701     0.1563E+03  -0.05001   0.12504
     463.00   3.665581     0.1507E+03  -0.06580   0.16451
     465.00   3.667453     0.1535E+03  -0.05788   0.14469
     467.00   3.669317     0.1629E+03  -0.03201   0.08003
     469.00   3.671173     0.1593E+03  -0.04191   0.10477
     471.00   3.673021     0.1541E+03  -0.05634   0.14085
     473.00   3.674861     0.1605E+03  -0.03860   0.09651
     475.00   3.676694     0.1654E+03  -0.02535   0.06339
     477.00   3.678518     0.1610E+03  -0.03726   0.09314
     479.00   3.680336     0.1632E+03  -0.03128   0.07819
     481.00   3.682145     0.1638E+03  -0.02974   0.07435
     483.00   3.683947     0.1718E+03  -0.00895   0.02238
     485.00   3.685742     0.1623E+03  -0.03377   0.08442
     487.00   3.687529     0.1483E+03  -0.07287   0.18218
     489.00   3.689309     0.1658E+03  -0.02432   0.06080
     491.00   3.691082     0.1668E+03  -0.02193   0.05483
     493.00   3.692847     0.1630E+03  -0.03174   0.07936
     495.00   3.694605     0.1704E+03  -0.01245   0.03114
     497.00   3.696356     0.1621E+03  -0.03436   0.08589
     499.00   3.698101     0.1491E+03  -0.07058   0.17646
     501.00   3.699838     0.1384E+03  -0.10296   0.25740
     503.00   3.701568     0.1502E+03  -0.06747   0.16867
     505.00   3.703291     0.1502E+03  -0.06742   0.16856
     507.00   3.705008     0.1578E+03  -0.04604   0.11510
     509.00   3.706718     0.1472E+03  -0.07611   0.19029
     511.00   3.708421     0.1524E+03  -0.06095   0.15239
     513.00   3.710117     0.1462E+03  -0.07910   0.19775
     515.00   3.711807     0.1405E+03  -0.09621   0.24053
     517.00   3.713490     0.1218E+03  -0.15821   0.39552
     519.00   3.715167     0.1287E+03  -0.13443   0.33607
     521.00   3.716838     0.1446E+03  -0.08392   0.20981
     523.00   3.718502     0.1631E+03  -0.03148   0.07871
     525.00   3.720159     0.1730E+03  -0.00604   0.01509
     527.00   3.721811     0.1474E+03  -0.07555   0.18887
     529.00   3.723456     0.1778E+03   0.00596  -0.01490
     531.00   3.725095     0.1926E+03   0.04057  -0.10142
     533.00   3.726727     0.1629E+03  -0.03213   0.08032
     535.00   3.728354     0.1843E+03   0.02160  -0.05400
     537.00   3.729974     0.1824E+03   0.01713  -0.04283
     539.00   3.731589     0.1773E+03   0.00458  -0.01146
     541.00   3.733197     0.1749E+03  -0.00118   0.00294
     543.00   3.734800     0.1785E+03   0.00763  -0.01907
     545.00   3.736397     0.1818E+03   0.01570  -0.03924
     547.00   3.737987     0.1767E+03   0.00318  -0.00796
     549.00   3.739572     0.1781E+03   0.00659  -0.01649
     551.00   3.741152     0.1754E+03   0.00000   0.00000
     553.00   3.742725     0.1849E+03   0.02283  -0.05708
     555.00   3.744293     0.1892E+03   0.03288  -0.08221
     557.00   3.745855     0.1851E+03   0.02350  -0.05875
     559.00   3.747412     0.1788E+03   0.00830  -0.02075
     561.00   3.748963     0.1860E+03   0.02562  -0.06404
     563.00   3.750508     0.1845E+03   0.02189  -0.05473
     565.00   3.752048     0.1891E+03   0.03261  -0.08152
     567.00   3.753583     0.1843E+03   0.02141  -0.05353
     569.00   3.755112     0.1924E+03   0.04017  -0.10043
     571.00   3.756636     0.1849E+03   0.02301  -0.05753
     573.00   3.758155     0.2050E+03   0.06780  -0.16950
     575.00   3.759668     0.1953E+03   0.04662  -0.11656
     577.00   3.761176     0.1983E+03   0.05324  -0.13310
     579.00   3.762679     0.1886E+03   0.03159  -0.07898
     581.00   3.764176     0.1990E+03   0.05479  -0.13698
     583.00   3.765669     0.2063E+03   0.07046  -0.17616
     585.00   3.767156     0.1967E+03   0.04980  -0.12449
     587.00   3.768638     0.1954E+03   0.04686  -0.11714
     589.00   3.770115     0.1621E+03  -0.03427   0.08566
     591.00   3.771587     0.1906E+03   0.03608  -0.09021
     593.00   3.773055     0.1940E+03   0.04386  -0.10965
     595.00   3.774517     0.1947E+03   0.04531  -0.11327
     597.00   3.775974     0.1997E+03   0.05643  -0.14107
     599.00   3.777427     0.1959E+03   0.04804  -0.12009
     601.00   3.778874     0.1935E+03   0.04272  -0.10680
     603.00   3.780317     0.2012E+03   0.05955  -0.14888
     605.00   3.781755     0.2060E+03   0.06990  -0.17476
     607.00   3.783189     0.2058E+03   0.06947  -0.17368
     609.00   3.784617     0.1969E+03   0.05015  -0.12539
     611.00   3.786041     0.1983E+03   0.05323  -0.13308
     613.00   3.787461     0.1852E+03   0.02361  -0.05903
     615.00   3.788875     0.1915E+03   0.03808  -0.09520
     617.00   3.790285     0.1757E+03   0.00068  -0.00169
     619.00   3.791691     0.1896E+03   0.03383  -0.08458
     621.00   3.793092     0.1867E+03   0.02720  -0.06801
     623.00   3.794488     0.1793E+03   0.00969  -0.02423
     625.00   3.795880     0.1738E+03  -0.00408   0.01020
     627.00   3.797267     0.1841E+03   0.02095  -0.05236
     629.00   3.798651     0.1902E+03   0.03517  -0.08792
     631.00   3.800029     0.1850E+03   0.02313  -0.05781
     633.00   3.801404     0.1889E+03   0.03214  -0.08036
     635.00   3.802774     0.1889E+03   0.03214  -0.08035
     637.00   3.804139     0.1886E+03   0.03159  -0.07898
     639.00   3.805501     0.1953E+03   0.04672  -0.11680
     641.00   3.806858     0.1911E+03   0.03720  -0.09300
     643.00   3.808211     0.1932E+03   0.04210  -0.10524
     645.00   3.809560     0.1922E+03   0.03985  -0.09963
     647.00   3.810904     0.1921E+03   0.03953  -0.09882
     649.00   3.812245     0.1884E+03   0.03117  -0.07793
     651.00   3.813581     0.1972E+03   0.05089  -0.12723
     653.00   3.814913     0.1974E+03   0.05137  -0.12841
     655.00   3.816241     0.1934E+03   0.04254  -0.10635
     657.00   3.817565     0.1851E+03   0.02351  -0.05878
     659.00   3.818885     0.1932E+03   0.04211  -0.10526
     661.00   3.820201     0.1950E+03   0.04609  -0.11523
     663.00   3.821513     0.1913E+03   0.03773  -0.09433
     665.00   3.822822     0.1900E+03   0.03464  -0.08660
     667.00   3.824126     0.1835E+03   0.01957  -0.04892
     669.00   3.825426     0.1848E+03   0.02278  -0.05696
     671.00   3.826723     0.1749E+03  -0.00115   0.00287
     673.00   3.828015     0.1803E+03   0.01193  -0.02981
     675.00   3.829304     0.1764E+03   0.00251  -0.00628
     677.00   3.830589     0.1776E+03   0.00535  -0.01338
     679.00   3.831870     0.1748E+03  -0.00140   0.00351
     681.00   3.833147     0.1770E+03   0.00408  -0.01021
     683.00   3.834421     0.1805E+03   0.01254  -0.03135
     685.00   3.835690     0.1756E+03   0.00041  -0.00102
     687.00   3.836957     0.1799E+03   0.01102  -0.02756
     689.00   3.838219     0.1846E+03   0.02215  -0.05539
     691.00   3.839478     0.1863E+03   0.02612  -0.06530
     693.00   3.840733     0.1854E+03   0.02402  -0.06006
     695.00   3.841985     0.1871E+03   0.02802  -0.07005
     697.00   3.843233     0.1921E+03   0.03948  -0.09870
     699.00   3.844477     0.1930E+03   0.04147  -0.10369
     701.00   3.845718     0.1923E+03   0.03994  -0.09985
     703.00   3.846955     0.1954E+03   0.04697  -0.11742
     705.00   3.848189     0.1923E+03   0.03994  -0.09984
     707.00   3.849419     0.1811E+03   0.01381  -0.03453
     709.00   3.850646     0.1696E+03  -0.01452   0.03629
     711.00   3.851870     0.1627E+03  -0.03267   0.08168
     713.00   3.853090     0.1576E+03  -0.04639   0.11597
     715.00   3.854306     0.1569E+03  -0.04833   0.12082
     717.00   3.855519     0.1601E+03  -0.03975   0.09938
     719.00   3.856729     0.1565E+03  -0.04939   0.12348
     721.00   3.857935     0.1623E+03  -0.03363   0.08408
     723.00   3.859138     0.1683E+03  -0.01783   0.04457
     725.00   3.860338     0.1715E+03  -0.00965   0.02412
     727.00   3.861534     0.1744E+03  -0.00246   0.00614
     729.00   3.862728     0.1748E+03  -0.00153   0.00383
     731.00   3.863917     0.1848E+03   0.02271  -0.05678
     733.00   3.865104     0.1856E+03   0.02450  -0.06124
     735.00   3.866287     0.1926E+03   0.04063  -0.10157
     737.00   3.867467     0.2012E+03   0.05959  -0.14899
     739.00   3.868644     0.1969E+03   0.05027  -0.12567
     741.00   3.869818     0.2021E+03   0.06148  -0.15369
     743.00   3.870989     0.2087E+03   0.07554  -0.18885
     745.00   3.872156     0.2073E+03   0.07261  -0.18153
     747.00   3.873321     0.2170E+03   0.09238  -0.23096
     749.00   3.874482     0.2162E+03   0.09080  -0.22701
     751.00   3.875640     0.2184E+03   0.09532  -0.23829
     753.00   3.876795     0.2252E+03   0.10862  -0.27154
     755.00   3.877947     0.2278E+03   0.11362  -0.28406
     757.00   3.879096     0.2288E+03   0.11542  -0.28854
     759.00   3.880242     0.2178E+03   0.09397  -0.23493
     761.00   3.881385     0.2078E+03   0.07356  -0.18390
     763.00   3.882524     0.1968E+03   0.05004  -0.12509
     765.00   3.883662     0.1852E+03   0.02372  -0.05929
     767.00   3.884795     0.1716E+03  -0.00959   0.02398
     769.00   3.885926     0.1756E+03   0.00056  -0.00141
     771.00   3.887054     0.1723E+03  -0.00768   0.01921
     773.00   3.888180     0.1723E+03  -0.00778   0.01945
     775.00   3.889302     0.1711E+03  -0.01071   0.02678
     777.00   3.890421     0.1743E+03  -0.00268   0.00669
     779.00   3.891537     0.1760E+03   0.00141  -0.00351
     781.00   3.892651     0.1763E+03   0.00213  -0.00532
     783.00   3.893762     0.1762E+03   0.00194  -0.00485
     785.00   3.894870     0.1733E+03  -0.00530   0.01325
     787.00   3.895975     0.1780E+03   0.00641  -0.01603
     789.00   3.897077     0.1770E+03   0.00402  -0.01006
     791.00   3.898176     0.1718E+03  -0.00906   0.02266
     793.00   3.899273     0.1742E+03  -0.00303   0.00757
     795.00   3.900367     0.1739E+03  -0.00368   0.00919
     797.00   3.901458     0.1803E+03   0.01197  -0.02993
     799.00   3.902547     0.1810E+03   0.01373  -0.03434
     801.00   3.903632     0.1865E+03   0.02679  -0.06696
     803.00   3.904716     0.1888E+03   0.03195  -0.07989
     805.00   3.905796     0.1888E+03   0.03207  -0.08016
     807.00   3.906873     0.1965E+03   0.04938  -0.12344
     809.00   3.907948     0.1962E+03   0.04860  -0.12149
     811.00   3.909021     0.1997E+03   0.05633  -0.14082
     813.00   3.910090     0.2098E+03   0.07770  -0.19426
     815.00   3.911158     0.2154E+03   0.08922  -0.22305
     817.00   3.912222     0.2186E+03   0.09574  -0.23934
     819.00   3.913284     0.2148E+03   0.08810  -0.22026
     821.00   3.914343     0.2019E+03   0.06117  -0.15292
     823.00   3.915400     0.2029E+03   0.06333  -0.15832
     825.00   3.916454     0.2017E+03   0.06079  -0.15198
     827.00   3.917506     0.2029E+03   0.06328  -0.15819
     829.00   3.918555     0.1998E+03   0.05653  -0.14133
     831.00   3.919601     0.1918E+03   0.03882  -0.09705
     833.00   3.920645     0.1900E+03   0.03476  -0.08690
     835.00   3.921686     0.1892E+03   0.03290  -0.08226
     837.00   3.922725     0.1911E+03   0.03722  -0.09305
     839.00   3.923762     0.1850E+03   0.02321  -0.05804
     841.00   3.924796     0.1914E+03   0.03805  -0.09511
     843.00   3.925828     0.1833E+03   0.01926  -0.04815
     845.00   3.926857     0.1713E+03  -0.01025   0.02563
     847.00   3.927883     0.1708E+03  -0.01143   0.02856
     849.00   3.928908     0.1732E+03  -0.00535   0.01337
     851.00   3.929929     0.1651E+03  -0.02624   0.06561
     853.00   3.930949     0.1714E+03  -0.01000   0.02499
     855.00   3.931966     0.1599E+03  -0.04005   0.10012
     857.00   3.932981     0.1808E+03   0.01330  -0.03325
     859.00   3.933993     0.1797E+03   0.01051  -0.02629
     861.00   3.935003     0.1844E+03   0.02173  -0.05433
     863.00   3.936011     0.1893E+03   0.03313  -0.08282
     865.00   3.937016     0.1899E+03   0.03458  -0.08645
     867.00   3.938019     0.1722E+03  -0.00803   0.02007
     869.00   3.939020     0.1892E+03   0.03296  -0.08241
     871.00   3.940018     0.1975E+03   0.05160  -0.12899
     873.00   3.941014     0.2002E+03   0.05750  -0.14375
     875.00   3.942008     0.1996E+03   0.05623  -0.14057
     877.00   3.943000     0.2026E+03   0.06262  -0.15655
     879.00   3.943989     0.2100E+03   0.07823  -0.19557
     881.00   3.944976     0.2074E+03   0.07285  -0.18212
     883.00   3.945961     0.2103E+03   0.07873  -0.19682
     885.00   3.946943     0.2047E+03   0.06719  -0.16797
     887.00   3.947924     0.1930E+03   0.04165  -0.10412
     889.00   3.948902     0.1929E+03   0.04134  -0.10335
     891.00   3.949878     0.1963E+03   0.04887  -0.12218
     893.00   3.950851     0.1934E+03   0.04253  -0.10631
     895.00   3.951823     0.1953E+03   0.04672  -0.11681
     897.00   3.952792     0.1961E+03   0.04848  -0.12121
     899.00   3.953760     0.1968E+03   0.05008  -0.12521
     901.00   3.954725     0.1935E+03   0.04271  -0.10678
     903.00   3.955688     0.2032E+03   0.06399  -0.15998
     905.00   3.956649     0.2120E+03   0.08231  -0.20577
     907.00   3.957607     0.2152E+03   0.08882  -0.22205
     909.00   3.958564     0.2142E+03   0.08678  -0.21694
     911.00   3.959518     0.2177E+03   0.09387  -0.23467
     913.00   3.960471     0.2216E+03   0.10153  -0.25381
     915.00   3.961421     0.2201E+03   0.09856  -0.24640
     917.00   3.962369     0.2202E+03   0.09887  -0.24718
     919.00   3.963315     0.2228E+03   0.10396  -0.25991
     921.00   3.964260     0.2102E+03   0.07869  -0.19672
     923.00   3.965202     0.2061E+03   0.07010  -0.17525
     925.00   3.966142     0.2024E+03   0.06224  -0.15559
     927.00   3.967080     0.2069E+03   0.07178  -0.17946
     929.00   3.968016     0.1991E+03   0.05509  -0.13772
     931.00   3.968950     0.2002E+03   0.05748  -0.14371
     933.00   3.969882     0.2028E+03   0.06299  -0.15747
     935.00   3.970812     0.2028E+03   0.06298  -0.15746
     937.00   3.971740     0.1973E+03   0.05105  -0.12763
     939.00   3.972666     0.2034E+03   0.06433  -0.16083
     941.00   3.973590     0.2016E+03   0.06046  -0.15115
     943.00   3.974512     0.2063E+03   0.07054  -0.17635
     945.00   3.975432     0.2047E+03   0.06712  -0.16779
     947.00   3.976350     0.2110E+03   0.08021  -0.20052
     949.00   3.977266     0.2125E+03   0.08342  -0.20855
     951.00   3.978180     0.2040E+03   0.06561  -0.16403
     953.00   3.979093     0.2089E+03   0.07585  -0.18962
     955.00   3.980003     0.2072E+03   0.07228  -0.18069
     957.00   3.980912     0.2104E+03   0.07895  -0.19736
     959.00   3.981819     0.2135E+03   0.08534  -0.21334
     961.00   3.982723     0.2114E+03   0.08102  -0.20254
     963.00   3.983626     0.2145E+03   0.08749  -0.21872
     965.00   3.984527     0.2119E+03   0.08205  -0.20512
     967.00   3.985426     0.2127E+03   0.08370  -0.20925
     969.00   3.986324     0.2153E+03   0.08898  -0.22246
     971.00   3.987219     0.2107E+03   0.07966  -0.19916
     973.00   3.988113     0.2080E+03   0.07400  -0.18501
     975.00   3.989005     0.2077E+03   0.07352  -0.18380
     977.00   3.989895     0.2091E+03   0.07635  -0.19087
     979.00   3.990783     0.2072E+03   0.07248  -0.18121
     981.00   3.991669     0.2121E+03   0.08248  -0.20621
     983.00   3.992553     0.2098E+03   0.07785  -0.19462
     985.00   3.993436     0.2113E+03   0.08098  -0.20244
     987.00   3.994317     0.2102E+03   0.07859  -0.19647
     989.00   3.995196     0.2101E+03   0.07841  -0.19602
     991.00   3.996074     0.2101E+03   0.07836  -0.19590
     993.00   3.996949     0.2117E+03   0.08174  -0.20436
     995.00   3.997823     0.2130E+03   0.08433  -0.21082
     997.00   3.998695     0.2133E+03   0.08492  -0.21231
     999.00   3.999566     0.2127E+03   0.08381  -0.20952
    1003.00   4.001301     0.2144E+03   0.08717  -0.21794
    1008.00   4.003461     0.2137E+03   0.08588  -0.21471
    1013.00   4.005610     0.2191E+03   0.09659  -0.24148
    1018.00   4.007748     0.2166E+03   0.09161  -0.22902
    1023.00   4.009875     0.2189E+03   0.09616  -0.24040
    1028.00   4.011993     0.2201E+03   0.09854  -0.24635
    1033.00   4.014100     0.2193E+03   0.09697  -0.24243
    1038.00   4.016197     0.2184E+03   0.09516  -0.23791
    1043.00   4.018284     0.2201E+03   0.09867  -0.24668
    1048.00   4.020361     0.2192E+03   0.09683  -0.24208
    1053.00   4.022429     0.2148E+03   0.08803  -0.22008
    1058.00   4.024486     0.2096E+03   0.07731  -0.19328
    1063.00   4.026533     0.2082E+03   0.07439  -0.18597
    1068.00   4.028571     0.2089E+03   0.07591  -0.18977
    1073.00   4.030600     0.2112E+03   0.08071  -0.20177
    1078.00   4.032619     0.2105E+03   0.07918  -0.19796
    1083.00   4.034628     0.2078E+03   0.07358  -0.18394
    1088.00   4.036629     0.2064E+03   0.07071  -0.17678
    1093.00   4.038620     0.2056E+03   0.06900  -0.17251
    1098.00   4.040603     0.2025E+03   0.06239  -0.15598
    1103.00   4.042576     0.2016E+03   0.06048  -0.15119
    1108.00   4.044539     0.1947E+03   0.04546  -0.11365
    1113.00   4.046495     0.1962E+03   0.04864  -0.12161
    1118.00   4.048442     0.1957E+03   0.04762  -0.11906
    1123.00   4.050380     0.1966E+03   0.04956  -0.12389
    1128.00   4.052309     0.1967E+03   0.04990  -0.12475
    1133.00   4.054230     0.1971E+03   0.05062  -0.12656
    1138.00   4.056142     0.1970E+03   0.05048  -0.12619
    1143.00   4.058046     0.1963E+03   0.04895  -0.12237
    1148.00   4.059942     0.1982E+03   0.05317  -0.13293
    1153.00   4.061830     0.1986E+03   0.05396  -0.13489
    1158.00   4.063708     0.1974E+03   0.05142  -0.12855
    1163.00   4.065579     0.1959E+03   0.04811  -0.12028
    1168.00   4.067443     0.1961E+03   0.04847  -0.12116
    1173.00   4.069298     0.1961E+03   0.04838  -0.12096
    1178.00   4.071145     0.1925E+03   0.04053  -0.10131
    1183.00   4.072985     0.1899E+03   0.03453  -0.08633
    1188.00   4.074817     0.1879E+03   0.02999  -0.07499
    1193.00   4.076640     0.1906E+03   0.03608  -0.09020
    1198.00   4.078457     0.1865E+03   0.02670  -0.06676
    1203.00   4.080266     0.1901E+03   0.03496  -0.08741
    1208.00   4.082067     0.1894E+03   0.03326  -0.08316
    1213.00   4.083861     0.1899E+03   0.03462  -0.08655
    1218.00   4.085648     0.1904E+03   0.03577  -0.08942
    1223.00   4.087426     0.1898E+03   0.03419  -0.08548
    1228.00   4.089198     0.1889E+03   0.03221  -0.08052
    1233.00   4.090963     0.1880E+03   0.03011  -0.07527
    1238.00   4.092721     0.1878E+03   0.02962  -0.07404
    1243.00   4.094471     0.1838E+03   0.02032  -0.05081
    1248.00   4.096214     0.1845E+03   0.02190  -0.05474
    1253.00   4.097951     0.1836E+03   0.01986  -0.04965
    1258.00   4.099681     0.1821E+03   0.01626  -0.04065
    1263.00   4.101403     0.1821E+03   0.01634  -0.04085
    1268.00   4.103119     0.1813E+03   0.01434  -0.03584
    1273.00   4.104828     0.1810E+03   0.01376  -0.03440
    1278.00   4.106531     0.1816E+03   0.01517  -0.03791
    1283.00   4.108227     0.1778E+03   0.00594  -0.01486
    1288.00   4.109916     0.1795E+03   0.01016  -0.02540
    1293.00   4.111598     0.1782E+03   0.00697  -0.01742
    1298.00   4.113275     0.1798E+03   0.01070  -0.02675
    1303.00   4.114944     0.1780E+03   0.00652  -0.01630
    1308.00   4.116608     0.1783E+03   0.00724  -0.01810
    1313.00   4.118265     0.1753E+03  -0.00012   0.00031
    1318.00   4.119915     0.1748E+03  -0.00155   0.00387
    1323.00   4.121560     0.1745E+03  -0.00221   0.00553
    1328.00   4.123198     0.1722E+03  -0.00810   0.02024
    1333.00   4.124830     0.1723E+03  -0.00780   0.01950
    1338.00   4.126456     0.1707E+03  -0.01178   0.02945
    1343.00   4.128076     0.1707E+03  -0.01173   0.02933
    1348.00   4.129690     0.1693E+03  -0.01533   0.03831
    1353.00   4.131298     0.1684E+03  -0.01776   0.04441
    1358.00   4.132900     0.1661E+03  -0.02360   0.05899
    1363.00   4.134496     0.1659E+03  -0.02414   0.06035
    1368.00   4.136086     0.1670E+03  -0.02133   0.05332
    1373.00   4.137671     0.1679E+03  -0.01888   0.04720
    1378.00   4.139249     0.1680E+03  -0.01870   0.04675
    1383.00   4.140822     0.1680E+03  -0.01864   0.04661
    1388.00   4.142389     0.1665E+03  -0.02259   0.05649
    1393.00   4.143951     0.1490E+03  -0.07083   0.17708
    1398.00   4.145507     0.1505E+03  -0.06652   0.16629
    1403.00   4.147058     0.1497E+03  -0.06888   0.17221
    1408.00   4.148602     0.1507E+03  -0.06582   0.16456
    1413.00   4.150142     0.1496E+03  -0.06911   0.17277
    1418.00   4.151676     0.1508E+03  -0.06568   0.16419
    1423.00   4.153205     0.1501E+03  -0.06772   0.16929
    1428.00   4.154728     0.1490E+03  -0.07091   0.17728
    1433.00   4.156246     0.1518E+03  -0.06266   0.15666
    1438.00   4.157759     0.1528E+03  -0.05987   0.14967
    1443.00   4.159266     0.1508E+03  -0.06559   0.16398
    1448.00   4.160769     0.1533E+03  -0.05845   0.14612
    1453.00   4.162266     0.1526E+03  -0.06034   0.15085
    1457.00   4.163460     0.1536E+03  -0.05767   0.14418
    1462.00   4.164948     0.1448E+03  -0.08323   0.20808
    1468.00   4.166726     0.1462E+03  -0.07915   0.19787
    1473.00   4.168202     0.1458E+03  -0.08020   0.20050
    1478.00   4.169674     0.1474E+03  -0.07553   0.18882
    1483.00   4.171141     0.1486E+03  -0.07195   0.17988
    1488.00   4.172603     0.1483E+03  -0.07273   0.18184
    1493.00   4.174060     0.1519E+03  -0.06234   0.15585
    1498.00   4.175512     0.1517E+03  -0.06295   0.15737
    1503.00   4.176959     0.1507E+03  -0.06578   0.16445
    1508.00   4.178401     0.1518E+03  -0.06273   0.15682
    1513.00   4.179839     0.1544E+03  -0.05548   0.13869
    1518.00   4.181272     0.1554E+03  -0.05256   0.13139
    1523.00   4.182700     0.1557E+03  -0.05171   0.12928
    1528.00   4.184123     0.1570E+03  -0.04809   0.12021
    1533.00   4.185542     0.1570E+03  -0.04821   0.12052
    1538.00   4.186956     0.1526E+03  -0.06052   0.15130
    1543.00   4.188366     0.1547E+03  -0.05440   0.13601
    1548.00   4.189771     0.1555E+03  -0.05219   0.13049
    1553.00   4.191172     0.1552E+03  -0.05315   0.13288
    1558.00   4.192567     0.1476E+03  -0.07496   0.18740
    1563.00   4.193959     0.1495E+03  -0.06926   0.17314
    1568.00   4.195346     0.1508E+03  -0.06559   0.16397
    1573.00   4.196729     0.1549E+03  -0.05407   0.13517
    1578.00   4.198107     0.1358E+03  -0.11109   0.27771
    1583.00   4.199481     0.1424E+03  -0.09058   0.22646
    1588.00   4.200850     0.1452E+03  -0.08203   0.20508
    1593.00   4.202216     0.1502E+03  -0.06731   0.16828
    1598.00   4.203577     0.1539E+03  -0.05676   0.14190
    1605.00   4.205475     0.1430E+03  -0.08873   0.22184
    1615.00   4.208173     0.1499E+03  -0.06815   0.17038
    1625.00   4.210854     0.1412E+03  -0.09424   0.23559
    1635.00   4.213518     0.1496E+03  -0.06914   0.17286
    1645.00   4.216166     0.1413E+03  -0.09389   0.23472
    1655.00   4.218798     0.1467E+03  -0.07751   0.19378
    1665.00   4.221415     0.1406E+03  -0.09598   0.23994
    1675.00   4.224015     0.1447E+03  -0.08345   0.20863
    1685.00   4.226600     0.1463E+03  -0.07885   0.19714
    1695.00   4.229170     0.1424E+03  -0.09060   0.22651
    1705.00   4.231725     0.1416E+03  -0.09284   0.23210
    1715.00   4.234264     0.1384E+03  -0.10291   0.25727
    1725.00   4.236789     0.1366E+03  -0.10850   0.27125
    1735.00   4.239300     0.1320E+03  -0.12329   0.30822
    1745.00   4.241796     0.1308E+03  -0.12734   0.31834
    1755.00   4.244277     0.1293E+03  -0.13232   0.33081
    1765.00   4.246745     0.1259E+03  -0.14405   0.36012
    1775.00   4.249198     0.1227E+03  -0.15511   0.38778
    1785.00   4.251638     0.1209E+03  -0.16162   0.40405
    1795.00   4.254065     0.1177E+03  -0.17327   0.43317
    1805.00   4.256477     0.1148E+03  -0.18393   0.45982
    1815.00   4.258877     0.1130E+03  -0.19088   0.47719
    1825.00   4.261263     0.1112E+03  -0.19778   0.49444
    1835.00   4.263636     0.1095E+03  -0.20475   0.51187
    1845.00   4.265996     0.1073E+03  -0.21327   0.53317
    1855.00   4.268344     0.1060E+03  -0.21880   0.54700
    1865.00   4.270679     0.1033E+03  -0.23011   0.57528
    1875.00   4.273001     0.1013E+03  -0.23828   0.59570
    1885.00   4.275311     0.1002E+03  -0.24306   0.60766
    1895.00   4.277609     0.9721E+02  -0.25630   0.64076
    1905.00   4.279895     0.9728E+02  -0.25600   0.63999
    1915.00   4.282169     0.9536E+02  -0.26466   0.66164
    1925.00   4.284431     0.9394E+02  -0.27116   0.67790
    1935.00   4.286681     0.9158E+02  -0.28220   0.70549
    1945.00   4.288919     0.8954E+02  -0.29201   0.73003
    1955.00   4.291147     0.8849E+02  -0.29710   0.74275
    1965.00   4.293363     0.8654E+02  -0.30680   0.76700
    1975.00   4.295567     0.8411E+02  -0.31918   0.79795
    1985.00   4.297760     0.8289E+02  -0.32551   0.81378
    1995.00   4.299943     0.8186E+02  -0.33094   0.82734
    2005.00   4.302114     0.8119E+02  -0.33451   0.83627
    2015.00   4.304275     0.8005E+02  -0.34063   0.85157
    2025.00   4.306425     0.7833E+02  -0.35007   0.87517
    2035.00   4.308564     0.7745E+02  -0.35501   0.88754
    2045.00   4.310693     0.7708E+02  -0.35706   0.89266
    2055.00   4.312812     0.7595E+02  -0.36346   0.90865
    2065.00   4.314920     0.7491E+02  -0.36946   0.92366
    2075.00   4.317018     0.7420E+02  -0.37362   0.93405
    2085.00   4.319106     0.7327E+02  -0.37909   0.94772
    2095.00   4.321184     0.7219E+02  -0.38552   0.96380
    2105.00   4.323252     0.7179E+02  -0.38796   0.96991
    2115.00   4.325311     0.7071E+02  -0.39452   0.98630
    2125.00   4.327359     0.6978E+02  -0.40029   1.00073
    2135.00   4.329398     0.6919E+02  -0.40395   1.00988
    2145.00   4.331428     0.6826E+02  -0.40982   1.02454
    2155.00   4.333447     0.6730E+02  -0.41597   1.03993
    2165.00   4.335458     0.6622E+02  -0.42303   1.05756
    2175.00   4.337460     0.6527E+02  -0.42927   1.07316
    2185.00   4.339452     0.6452E+02  -0.43431   1.08577
    2195.00   4.341434     0.6374E+02  -0.43961   1.09903
    2205.00   4.343409     0.6238E+02  -0.44900   1.12249
    2215.00   4.345374     0.6204E+02  -0.45134   1.12836
    2225.00   4.347330     0.6073E+02  -0.46062   1.15154
    2235.00   4.349277     0.5993E+02  -0.46634   1.16584
    2245.00   4.351216     0.5908E+02  -0.47257   1.18142
    2255.00   4.353147     0.5835E+02  -0.47796   1.19489
    2265.00   4.355068     0.5720E+02  -0.48661   1.21653
    2275.00   4.356981     0.5675E+02  -0.49004   1.22510
    2285.00   4.358886     0.5564E+02  -0.49866   1.24664
    2295.00   4.360783     0.4358E+02  -0.60467   1.51169
    2305.00   4.362671     0.4903E+02  -0.55353   1.38383
    2315.00   4.364551     0.4895E+02  -0.55423   1.38558
    2325.00   4.366423     0.4051E+02  -0.63642   1.59104
    2335.00   4.368287     0.4486E+02  -0.59219   1.48047
    2345.00   4.370143     0.4032E+02  -0.63849   1.59622
    2355.00   4.371991     0.3752E+02  -0.66970   1.67426
    2365.00   4.373831     0.4110E+02  -0.63020   1.57550
    2375.00   4.375664     0.3777E+02  -0.66684   1.66709
    2385.00   4.377488     0.3523E+02  -0.69709   1.74272
    2395.00   4.379306     0.3794E+02  -0.66493   1.66233
    2405.00   4.381115     0.3589E+02  -0.68908   1.72271
    2415.00   4.382917     0.3292E+02  -0.72650   1.81626
    2425.00   4.384712     0.3512E+02  -0.69846   1.74615
    2435.00   4.386499     0.3290E+02  -0.72685   1.81713
    2445.00   4.388279     0.3320E+02  -0.72286   1.80714
    2455.00   4.390052     0.3167E+02  -0.74336   1.85840
    2465.00   4.391817     0.3126E+02  -0.74905   1.87263
    2475.00   4.393575     0.3026E+02  -0.76312   1.90781
    2485.00   4.395327     0.2558E+02  -0.83618   2.09046
    2495.00   4.397071     0.2386E+02  -0.86627   2.16568
    2505.00   4.398808     0.2429E+02  -0.85866   2.14665
    2515.00   4.400538     0.2321E+02  -0.87831   2.19577
    2525.00   4.402262     0.2384E+02  -0.86672   2.16679
    2535.00   4.403978     0.2392E+02  -0.86517   2.16292
    2545.00   4.405688     0.2375E+02  -0.86836   2.17090
    2555.00   4.407391     0.2384E+02  -0.86669   2.16672
    2565.00   4.409087     0.2419E+02  -0.86032   2.15080
    2575.00   4.410777     0.2456E+02  -0.85384   2.13459
    2585.00   4.412460     0.2414E+02  -0.86124   2.15309
    2595.00   4.414137     0.2426E+02  -0.85918   2.14795
    2605.00   4.415808     0.2431E+02  -0.85818   2.14544
    2615.00   4.417472     0.2397E+02  -0.86442   2.16106
    2625.00   4.419129     0.2365E+02  -0.87019   2.17547
    2635.00   4.420781     0.2366E+02  -0.87001   2.17502
    2645.00   4.422426     0.2346E+02  -0.87366   2.18414
    2655.00   4.424065     0.2321E+02  -0.87832   2.19580
    2665.00   4.425697     0.2288E+02  -0.88455   2.21136
    2675.00   4.427324     0.2310E+02  -0.88032   2.20079
    2685.00   4.428945     0.2287E+02  -0.88470   2.21176
    2695.00   4.430559     0.2247E+02  -0.89241   2.23102
    2705.00   4.432167     0.2247E+02  -0.89232   2.23081
    2715.00   4.433770     0.2229E+02  -0.89593   2.23982
    2725.00   4.435367     0.2217E+02  -0.89826   2.24566
    2735.00   4.436957     0.2182E+02  -0.90522   2.26306
    2745.00   4.438542     0.2178E+02  -0.90586   2.26465
    2755.00   4.440122     0.2167E+02  -0.90819   2.27047
    2765.00   4.441695     0.2141E+02  -0.91342   2.28356
    2775.00   4.443263     0.2113E+02  -0.91921   2.29803
    2785.00   4.444825     0.2106E+02  -0.92047   2.30118
    2795.00   4.446382     0.2098E+02  -0.92221   2.30553
    2805.00   4.447933     0.2077E+02  -0.92657   2.31643
    2815.00   4.449478     0.2050E+02  -0.93217   2.33042
    2825.00   4.451018     0.2037E+02  -0.93511   2.33779
    2835.00   4.452553     0.2026E+02  -0.93745   2.34362
    2845.00   4.454082     0.2002E+02  -0.94249   2.35621
    2855.00   4.455606     0.1983E+02  -0.94666   2.36665
    2865.00   4.457125     0.1966E+02  -0.95039   2.37597
    2875.00   4.458638     0.1949E+02  -0.95413   2.38533
    2885.00   4.460146     0.1931E+02  -0.95818   2.39545
    2895.00   4.461648     0.1914E+02  -0.96210   2.40526
    2905.00   4.463146     0.1895E+02  -0.96645   2.41612
    2915.00   4.464639     0.1879E+02  -0.97003   2.42508
    2925.00   4.466126     0.1850E+02  -0.97676   2.44190
    2935.00   4.467608     0.1844E+02  -0.97828   2.44569
    2945.00   4.469085     0.1823E+02  -0.98313   2.45782
    2955.00   4.470557     0.1807E+02  -0.98711   2.46776
    2965.00   4.472025     0.1794E+02  -0.99027   2.47568
    2975.00   4.473487     0.1777E+02  -0.99432   2.48579
    2985.00   4.474944     0.1757E+02  -0.99932   2.49830
    2995.00   4.476397     0.1739E+02  -1.00380   2.50949
    3005.00   4.477844     0.1725E+02  -1.00711   2.51776
    3015.00   4.479287     0.1719E+02  -1.00883   2.52208
    3025.00   4.480725     0.1705E+02  -1.01238   2.53095
    3035.00   4.482159     0.1692E+02  -1.01559   2.53899
    3045.00   4.483587     0.1686E+02  -1.01704   2.54260
    3055.00   4.485011     0.1674E+02  -1.02016   2.55041
    3065.00   4.486430     0.1664E+02  -1.02297   2.55741
    3075.00   4.487845     0.1657E+02  -1.02481   2.56203
    3085.00   4.489255     0.1642E+02  -1.02852   2.57130
    3095.00   4.490661     0.1636E+02  -1.03009   2.57524
    3105.00   4.492062     0.1630E+02  -1.03182   2.57955
    3115.00   4.493458     0.1612E+02  -1.03670   2.59176
    3125.00   4.494850     0.1607E+02  -1.03808   2.59521
    3135.00   4.496238     0.1596E+02  -1.04088   2.60220
    3145.00   4.497621     0.1585E+02  -1.04398   2.60995
    3155.00   4.499000     0.1572E+02  -1.04744   2.61860
    3165.00   4.500374     0.1559E+02  -1.05110   2.62776
    3175.00   4.501744     0.1552E+02  -1.05304   2.63261
    3185.00   4.503109     0.1542E+02  -1.05579   2.63947
    3195.00   4.504471     0.1535E+02  -1.05796   2.64491
    3210.00   4.506505     0.1518E+02  -1.06266   2.65665
    3230.00   4.509202     0.1496E+02  -1.06908   2.67270
    3250.00   4.511883     0.1476E+02  -1.07498   2.68746
    3270.00   4.514548     0.1453E+02  -1.08183   2.70458
    3290.00   4.517196     0.1428E+02  -1.08936   2.72341
    3310.00   4.519828     0.1408E+02  -1.09549   2.73872
    3330.00   4.522444     0.1384E+02  -1.10296   2.75740
    3350.00   4.525045     0.1363E+02  -1.10950   2.77375
    3370.00   4.527630     0.1339E+02  -1.11725   2.79313
    3390.00   4.530200     0.1314E+02  -1.12545   2.81361
    3410.00   4.532754     0.1289E+02  -1.13380   2.83451
    3430.00   4.535294     0.1268E+02  -1.14085   2.85213
    3450.00   4.537819     0.1245E+02  -1.14881   2.87202
    3470.00   4.540329     0.1221E+02  -1.15722   2.89305
    3490.00   4.542826     0.1199E+02  -1.16511   2.91278
    3510.00   4.545307     0.1178E+02  -1.17298   2.93245
    3530.00   4.547775     0.1154E+02  -1.18179   2.95447
    3550.00   4.550228     0.1134E+02  -1.18951   2.97378
    3570.00   4.552669     0.1112E+02  -1.19794   2.99484
    3590.00   4.555095     0.1091E+02  -1.20605   3.01512
    3610.00   4.557508     0.1072E+02  -1.21370   3.03424
    3630.00   4.559907     0.1052E+02  -1.22212   3.05531
    3650.00   4.562293     0.1030E+02  -1.23108   3.07770
    3670.00   4.564666     0.1011E+02  -1.23945   3.09863
    3690.00   4.567026     0.9889E+01  -1.24884   3.12211
    3710.00   4.569374     0.9693E+01  -1.25756   3.14390
    3730.00   4.571709     0.9537E+01  -1.26458   3.16144
    3750.00   4.574031     0.9325E+01  -1.27435   3.18587
    3770.00   4.576342     0.9184E+01  -1.28098   3.20246
    3790.00   4.578639     0.9002E+01  -1.28966   3.22415
    3810.00   4.580925     0.8841E+01  -1.29751   3.24378
    3830.00   4.583199     0.8688E+01  -1.30511   3.26276
    3850.00   4.585461     0.8528E+01  -1.31317   3.28292
    3870.00   4.587711     0.8346E+01  -1.32254   3.30635
    3890.00   4.589950     0.8197E+01  -1.33034   3.32584
    3910.00   4.592176     0.8052E+01  -1.33813   3.34532
    3930.00   4.594393     0.7901E+01  -1.34633   3.36582
    3950.00   4.596597     0.7730E+01  -1.35584   3.38960
    3970.00   4.598790     0.7593E+01  -1.36360   3.40899
    3990.00   4.600973     0.7426E+01  -1.37326   3.43316
    4010.00   4.603145     0.7307E+01  -1.38027   3.45068
    4030.00   4.605305     0.7184E+01  -1.38764   3.46909
    4050.00   4.607455     0.7041E+01  -1.39639   3.49098
    4070.00   4.609594     0.6917E+01  -1.40412   3.51030
    4090.00   4.611723     0.6791E+01  -1.41209   3.53022
    4110.00   4.613842     0.6677E+01  -1.41943   3.54857
    4130.00   4.615950     0.6569E+01  -1.42649   3.56623
    4150.00   4.618048     0.6452E+01  -1.43429   3.58573
    4170.00   4.620136     0.6344E+01  -1.44163   3.60407
    4190.00   4.622214     0.6232E+01  -1.44937   3.62342
    4210.00   4.624282     0.6120E+01  -1.45723   3.64308
    4230.00   4.626340     0.6040E+01  -1.46299   3.65748
    4250.00   4.628389     0.5928E+01  -1.47106   3.67766
    4270.00   4.630428     0.5839E+01  -1.47765   3.69414
    4290.00   4.632457     0.5611E+01  -1.49496   3.73741
    4310.00   4.634478     0.5369E+01  -1.51413   3.78533
    4330.00   4.636488     0.5335E+01  -1.51686   3.79215
    4350.00   4.638489     0.5146E+01  -1.53250   3.83125
    4370.00   4.640481     0.5022E+01  -1.54312   3.85779
    4390.00   4.642465     0.4925E+01  -1.55161   3.87904
    4410.00   4.644439     0.4772E+01  -1.56530   3.91326
    4430.00   4.646404     0.4699E+01  -1.57199   3.92999
    4450.00   4.648360     0.4619E+01  -1.57949   3.94872
    4470.00   4.650308     0.4490E+01  -1.59173   3.97932
    4490.00   4.652246     0.4461E+01  -1.59458   3.98646
    4510.00   4.654177     0.4364E+01  -1.60408   4.01020
    4530.00   4.656098     0.4270E+01  -1.61357   4.03393
    4550.00   4.658011     0.4233E+01  -1.61738   4.04344
    4570.00   4.659916     0.4177E+01  -1.62316   4.05791
    4590.00   4.661813     0.4071E+01  -1.63432   4.08580
    4610.00   4.663701     0.4053E+01  -1.63627   4.09067
    4630.00   4.665581     0.3980E+01  -1.64417   4.11042
    4650.00   4.667453     0.3933E+01  -1.64926   4.12316
    4670.00   4.669317     0.3898E+01  -1.65319   4.13298
    4690.00   4.671173     0.3828E+01  -1.66098   4.15245
    4710.00   4.673021     0.3767E+01  -1.66798   4.16996
    4730.00   4.674861     0.3751E+01  -1.66983   4.17459
    4750.00   4.676694     0.3677E+01  -1.67850   4.19624
    4770.00   4.678518     0.3628E+01  -1.68435   4.21087
    4790.00   4.680336     0.3589E+01  -1.68900   4.22251
    4810.00   4.682145     0.3513E+01  -1.69830   4.24575
    4830.00   4.683947     0.3503E+01  -1.69961   4.24902
    4850.00   4.685741     0.3444E+01  -1.70699   4.26747
    4870.00   4.687529     0.3384E+01  -1.71457   4.28643
    4890.00   4.689309     0.3337E+01  -1.72061   4.30153
    4910.00   4.691082     0.3295E+01  -1.72611   4.31527
    4930.00   4.692847     0.3246E+01  -1.73263   4.33157
    4950.00   4.694605     0.3195E+01  -1.73959   4.34897
    4970.00   4.696356     0.3166E+01  -1.74356   4.35889
    4990.00   4.698101     0.3121E+01  -1.74966   4.37416
    5010.00   4.699838     0.3080E+01  -1.75542   4.38854
    5030.00   4.701568     0.3039E+01  -1.76128   4.40321
    5050.00   4.703291     0.2984E+01  -1.76923   4.42307
    5070.00   4.705008     0.2955E+01  -1.77347   4.43366
    5090.00   4.706717     0.2915E+01  -1.77930   4.44826
    5110.00   4.708421     0.2869E+01  -1.78626   4.46565
    5130.00   4.710117     0.2844E+01  -1.79012   4.47531
    5150.00   4.711807     0.2797E+01  -1.79728   4.49320
    5170.00   4.713490     0.2776E+01  -1.80055   4.50138
    5190.00   4.715167     0.2731E+01  -1.80768   4.51920
    5210.00   4.716838     0.2700E+01  -1.81266   4.53165
    5230.00   4.718502     0.2657E+01  -1.81967   4.54919
    5250.00   4.720160     0.2631E+01  -1.82388   4.55969
    5270.00   4.721810     0.2611E+01  -1.82726   4.56814
    5290.00   4.723455     0.2561E+01  -1.83566   4.58916
    5310.00   4.725095     0.2527E+01  -1.84134   4.60334
    5330.00   4.726727     0.2502E+01  -1.84569   4.61423
    5350.00   4.728354     0.2471E+01  -1.85107   4.62767
    5370.00   4.729974     0.2443E+01  -1.85614   4.64035
    5390.00   4.731589     0.2414E+01  -1.86127   4.65318
    5410.00   4.733197     0.2385E+01  -1.86655   4.66637
    5430.00   4.734800     0.2346E+01  -1.87371   4.68428
    5450.00   4.736397     0.2329E+01  -1.87691   4.69227
    5470.00   4.737988     0.2293E+01  -1.88360   4.70900
    5490.00   4.739573     0.2268E+01  -1.88834   4.72084
    5510.00   4.741152     0.2239E+01  -1.89404   4.73509
    5530.00   4.742725     0.2232E+01  -1.89536   4.73841
    5550.00   4.744293     0.2184E+01  -1.90485   4.76214
    5570.00   4.745855     0.2171E+01  -1.90736   4.76839
    5590.00   4.747412     0.2138E+01  -1.91401   4.78502
    5610.00   4.748963     0.2119E+01  -1.91793   4.79483
    5630.00   4.750508     0.2085E+01  -1.92500   4.81251
    5650.00   4.752048     0.2069E+01  -1.92830   4.82076
    5670.00   4.753583     0.2044E+01  -1.93353   4.83381
    5690.00   4.755112     0.2012E+01  -1.94047   4.85117
    5710.00   4.756636     0.1998E+01  -1.94340   4.85851
    5730.00   4.758155     0.1973E+01  -1.94885   4.87212
    5750.00   4.759668     0.1950E+01  -1.95403   4.88507
    5770.00   4.761176     0.1925E+01  -1.95961   4.89903
    5790.00   4.762679     0.1908E+01  -1.96343   4.90858
    5810.00   4.764176     0.1881E+01  -1.96970   4.92425
    5830.00   4.765669     0.1860E+01  -1.97449   4.93623
    5850.00   4.767156     0.1839E+01  -1.97945   4.94863
    5870.00   4.768638     0.1813E+01  -1.98570   4.96426
    5890.00   4.770115     0.1793E+01  -1.99046   4.97614
    5910.00   4.771587     0.1773E+01  -1.99519   4.98797
    5930.00   4.773055     0.1754E+01  -1.99996   4.99989
    5950.00   4.774517     0.1731E+01  -2.00579   5.01447
    5970.00   4.775974     0.1714E+01  -2.00991   5.02478
    5990.00   4.777427     0.1694E+01  -2.01499   5.03746
    6010.00   4.778874     0.1675E+01  -2.02007   5.05017
    6030.00   4.780317     0.1655E+01  -2.02520   5.06301
    6050.00   4.781755     0.1633E+01  -2.03104   5.07761
    6070.00   4.783189     0.1615E+01  -2.03594   5.08985
    6090.00   4.784617     0.1596E+01  -2.04107   5.10267
    6110.00   4.786041     0.1576E+01  -2.04645   5.11612
    6130.00   4.787460     0.1560E+01  -2.05083   5.12708
    6150.00   4.788875     0.1543E+01  -2.05558   5.13894
    6170.00   4.790285     0.1527E+01  -2.06012   5.15030
    6190.00   4.791691     0.1509E+01  -2.06526   5.16316
    6210.00   4.793092     0.1493E+01  -2.06990   5.17475
    6230.00   4.794488     0.1474E+01  -2.07548   5.18871
    6250.00   4.795880     0.1456E+01  -2.08097   5.20243
    6270.00   4.797267     0.1439E+01  -2.08593   5.21483
    6290.00   4.798651     0.1424E+01  -2.09053   5.22632
    6310.00   4.800029     0.1407E+01  -2.09573   5.23932
    6330.00   4.801404     0.1394E+01  -2.09976   5.24941
    6350.00   4.802773     0.1377E+01  -2.10515   5.26286
    6370.00   4.804139     0.1364E+01  -2.10932   5.27329
    6390.00   4.805501     0.1346E+01  -2.11499   5.28748
    6420.00   4.807535     0.1324E+01  -2.12201   5.30501
    6460.00   4.810232     0.1294E+01  -2.13202   5.33005
    6500.00   4.812913     0.1266E+01  -2.14166   5.35416
    6540.00   4.815578     0.1238E+01  -2.15132   5.37830
    6580.00   4.818226     0.1212E+01  -2.16068   5.40170
    6620.00   4.820858     0.1185E+01  -2.17046   5.42615
    6660.00   4.823474     0.1159E+01  -2.17990   5.44976
    6700.00   4.826075     0.1134E+01  -2.18935   5.47337
    6740.00   4.828660     0.1109E+01  -2.19902   5.49756
    6780.00   4.831230     0.1085E+01  -2.20838   5.52095
    6820.00   4.833784     0.1062E+01  -2.21785   5.54463
    6860.00   4.836324     0.1040E+01  -2.22699   5.56748
    6900.00   4.838849     0.1018E+01  -2.23639   5.59098
    6940.00   4.841359     0.9963E+00  -2.24562   5.61405
    6980.00   4.843855     0.9755E+00  -2.25479   5.63698
    7020.00   4.846337     0.9547E+00  -2.26414   5.66035
    7060.00   4.848804     0.9352E+00  -2.27311   5.68278
    7100.00   4.851258     0.9157E+00  -2.28224   5.70559
    7140.00   4.853698     0.8970E+00  -2.29122   5.72805
    7180.00   4.856124     0.8785E+00  -2.30029   5.75073
    7220.00   4.858537     0.8606E+00  -2.30921   5.77301
    7260.00   4.860937     0.8430E+00  -2.31819   5.79548
    7300.00   4.863323     0.8260E+00  -2.32703   5.81757
    7340.00   4.865696     0.8092E+00  -2.33598   5.83995
    7380.00   4.868056     0.7931E+00  -2.34469   5.86172
    7420.00   4.870404     0.7767E+00  -2.35378   5.88445
    7460.00   4.872739     0.7612E+00  -2.36249   5.90623
    7500.00   4.875061     0.7463E+00  -2.37107   5.92767
    7540.00   4.877371     0.7315E+00  -2.37981   5.94952
    7580.00   4.879669     0.7176E+00  -2.38810   5.97025
    7620.00   4.881955     0.7036E+00  -2.39666   5.99164
    7660.00   4.884229     0.6900E+00  -2.40517   6.01293
    7700.00   4.886491     0.6765E+00  -2.41373   6.03432
    7740.00   4.888741     0.6636E+00  -2.42210   6.05524
    7780.00   4.890980     0.6509E+00  -2.43047   6.07619
    7820.00   4.893207     0.6385E+00  -2.43885   6.09713
    7860.00   4.895422     0.6264E+00  -2.44716   6.11790
    7900.00   4.897627     0.6145E+00  -2.45546   6.13864
    7940.00   4.899820     0.6030E+00  -2.46370   6.15924
    7980.00   4.902003     0.5918E+00  -2.47187   6.17967
    8020.00   4.904174     0.5805E+00  -2.48023   6.20057
    8060.00   4.906335     0.5697E+00  -2.48833   6.22082
    8100.00   4.908485     0.5594E+00  -2.49632   6.24079
    8140.00   4.910625     0.5490E+00  -2.50445   6.26112
    8180.00   4.912753     0.5391E+00  -2.51236   6.28090
    8220.00   4.914872     0.5293E+00  -2.52033   6.30081
    8260.00   4.916980     0.5196E+00  -2.52831   6.32077
    8300.00   4.919078     0.5103E+00  -2.53621   6.34052
    8340.00   4.921166     0.5010E+00  -2.54421   6.36053
    8380.00   4.923244     0.4920E+00  -2.55207   6.38018
    8420.00   4.925312     0.4834E+00  -2.55975   6.39936
    8460.00   4.927370     0.4747E+00  -2.56757   6.41892
    8500.00   4.929419     0.4664E+00  -2.57529   6.43823
    8540.00   4.931458     0.4582E+00  -2.58296   6.45740
    8580.00   4.933487     0.4502E+00  -2.59060   6.47649
    8620.00   4.935507     0.4424E+00  -2.59822   6.49556
    8660.00   4.937518     0.4347E+00  -2.60579   6.51447
    8700.00   4.939519     0.4272E+00  -2.61338   6.53344
    8740.00   4.941511     0.4199E+00  -2.62090   6.55225
    8780.00   4.943495     0.4127E+00  -2.62843   6.57107
    8820.00   4.945469     0.4055E+00  -2.63597   6.58993
    8860.00   4.947433     0.3987E+00  -2.64339   6.60848
    8900.00   4.949390     0.3919E+00  -2.65084   6.62710
    8940.00   4.951338     0.3854E+00  -2.65813   6.64533
    8980.00   4.953277     0.3788E+00  -2.66565   6.66413
    9020.00   4.955207     0.3726E+00  -2.67279   6.68199
    9060.00   4.957129     0.3664E+00  -2.68004   6.70009
    9100.00   4.959042     0.3601E+00  -2.68756   6.71890
    9140.00   4.960946     0.3543E+00  -2.69461   6.73653
    9180.00   4.962843     0.3485E+00  -2.70181   6.75453
    9220.00   4.964731     0.3429E+00  -2.70885   6.77213
    9260.00   4.966611     0.3373E+00  -2.71601   6.79002
    9300.00   4.968483     0.3318E+00  -2.72309   6.80774
    9340.00   4.970347     0.3264E+00  -2.73020   6.82551
    9380.00   4.972203     0.3212E+00  -2.73722   6.84306
    9420.00   4.974051     0.3161E+00  -2.74424   6.86061
    9460.00   4.975891     0.3110E+00  -2.75128   6.87820
    9500.00   4.977724     0.3060E+00  -2.75823   6.89558
    9540.00   4.979548     0.3012E+00  -2.76516   6.91290
    9580.00   4.981365     0.2965E+00  -2.77204   6.93009
    9620.00   4.983175     0.2918E+00  -2.77895   6.94737
    9660.00   4.984977     0.2872E+00  -2.78578   6.96446
    9700.00   4.986772     0.2828E+00  -2.79260   6.98149
    9740.00   4.988559     0.2782E+00  -2.79965   6.99911
    9780.00   4.990339     0.2740E+00  -2.80625   7.01563
    9820.00   4.992111     0.2698E+00  -2.81294   7.03234
    9860.00   4.993877     0.2657E+00  -2.81966   7.04915
    9900.00   4.995635     0.2616E+00  -2.82633   7.06584
    9940.00   4.997386     0.2576E+00  -2.83305   7.08262
    9980.00   4.999130     0.2537E+00  -2.83968   7.09919
   10020.00   5.000868     0.2499E+00  -2.84629   7.11573
   20000.00   5.301030     0.1726E-01  -4.00700  10.01750
   40000.00   5.602060     0.1126E-02  -5.19253  12.98134
   60000.00   5.778151     0.2252E-03  -5.89151  14.72878
   80000.00   5.903090     0.7162E-04  -6.38900  15.97250
  100000.00   6.000000     0.2941E-04  -6.77555  16.93886
  120000.00   6.079181     0.1420E-04  -7.09171  17.72928
  140000.00   6.146128     0.7669E-05  -7.35924  18.39811
  160000.00   6.204120     0.4497E-05  -7.59111  18.97776
