age =   14.0    [Fe/H] =    0.00

wavele(nm) log wave(A)   Hlam       log(Hlam/Hlam(V))  Hlam(mag(V)) 
      89.50   2.951823     0.7933E-13 -15.23722  38.09305
      90.50   2.956649     0.1301E-12 -15.02252  37.55629
      91.50   2.961421     0.2040E-12 -14.82709  37.06771
      92.50   2.966142     0.7524E-11 -13.26024  33.15059
      93.50   2.970812     0.1054E-10 -13.11404  32.78510
      94.50   2.975432     0.1549E-10 -12.94653  32.36633
      95.50   2.980003     0.2370E-10 -12.76197  31.90492
      96.50   2.984527     0.3525E-10 -12.58952  31.47379
      97.50   2.989005     0.4750E-10 -12.46000  31.15001
      98.50   2.993436     0.6761E-10 -12.30668  30.76670
      99.50   2.997823     0.9312E-10 -12.16765  30.41912
     100.50   3.002166     0.1396E-09 -11.99168  29.97921
     101.50   3.006466     0.1919E-09 -11.85360  29.63399
     102.50   3.010724     0.2233E-09 -11.78783  29.46956
     103.50   3.014940     0.3699E-09 -11.56857  28.92143
     104.50   3.019116     0.5160E-09 -11.42403  28.56007
     105.50   3.023252     0.6585E-09 -11.31815  28.29537
     106.50   3.027350     0.9026E-09 -11.18118  27.95296
     107.50   3.031409     0.1228E-08 -11.04753  27.61884
     108.50   3.035430     0.1665E-08 -10.91538  27.28845
     109.50   3.039414     0.2090E-08 -10.81653  27.04132
     110.50   3.043362     0.7115E-08 -10.28450  25.71126
     111.50   3.047275     0.1157E-07 -10.07337  25.18342
     112.50   3.051152     0.1700E-07  -9.90634  24.76584
     113.50   3.054996     0.2531E-07  -9.73332  24.33330
     114.50   3.058805     0.3401E-07  -9.60509  24.01272
     115.50   3.062582     0.4064E-07  -9.52777  23.81944
     116.50   3.066326     0.5524E-07  -9.39443  23.48607
     117.50   3.070038     0.7190E-07  -9.27993  23.19981
     118.50   3.073718     0.8135E-07  -9.22630  23.06576
     119.50   3.077368     0.7405E-07  -9.26712  23.16781
     120.50   3.080987     0.8312E-07  -9.21698  23.04246
     121.50   3.084576     0.2379E-07  -9.76019  24.40047
     122.50   3.088136     0.1152E-06  -9.07506  22.68766
     123.50   3.091667     0.2141E-06  -8.80605  22.01513
     124.50   3.095169     0.2867E-06  -8.67926  21.69816
     125.50   3.098644     0.3444E-06  -8.59958  21.49896
     126.50   3.102091     0.3788E-06  -8.55823  21.39559
     127.50   3.105510     0.4630E-06  -8.47109  21.17772
     128.50   3.108903     0.5217E-06  -8.41925  21.04813
     129.50   3.112270     0.6370E-06  -8.33257  20.83141
     130.50   3.115611     0.6787E-06  -8.30498  20.76244
     131.50   3.118926     0.8490E-06  -8.20777  20.51943
     132.50   3.122216     0.8892E-06  -8.18767  20.46917
     133.50   3.125481     0.9984E-06  -8.13738  20.34346
     134.50   3.128722     0.1188E-05  -8.06170  20.15426
     135.50   3.131939     0.1401E-05  -7.99009  19.97522
     136.50   3.135133     0.1514E-05  -7.95658  19.89146
     137.50   3.138303     0.1656E-05  -7.91761  19.79404
     138.50   3.141450     0.1839E-05  -7.87211  19.68027
     139.50   3.144574     0.2086E-05  -7.81746  19.54364
     140.50   3.147676     0.2566E-05  -7.72750  19.31874
     141.50   3.150756     0.2949E-05  -7.66705  19.16762
     142.50   3.153815     0.3435E-05  -7.60074  19.00186
     143.50   3.156852     0.4131E-05  -7.52058  18.80144
     144.20   3.158965     0.5338E-05  -7.40932  18.52330
     144.70   3.160469     0.4832E-05  -7.45254  18.63135
     145.50   3.162863     0.5696E-05  -7.38113  18.45283
     146.50   3.165838     0.7385E-05  -7.26835  18.17087
     147.50   3.168792     0.8498E-05  -7.20736  18.01839
     148.50   3.171726     0.9201E-05  -7.17285  17.93213
     149.50   3.174641     0.1208E-04  -7.05459  17.63647
     150.50   3.177536     0.1487E-04  -6.96448  17.41120
     151.20   3.179552     0.1135E-04  -7.08166  17.70416
     151.70   3.180986     0.1454E-04  -6.97420  17.43550
     152.50   3.183270     0.3636E-04  -6.57611  16.44027
     153.50   3.186108     0.6193E-04  -6.34479  15.86197
     154.50   3.188928     0.5060E-04  -6.43249  16.08121
     155.50   3.191730     0.8617E-04  -6.20132  15.50330
     156.50   3.194514     0.8128E-04  -6.22671  15.56678
     157.50   3.197281     0.1596E-03  -5.93360  14.83400
     158.50   3.200029     0.1951E-03  -5.84651  14.61627
     159.50   3.202761     0.2297E-03  -5.77560  14.43901
     160.50   3.205475     0.2462E-03  -5.74546  14.36364
     161.50   3.208173     0.2706E-03  -5.70437  14.26092
     162.50   3.210853     0.3064E-03  -5.65041  14.12603
     163.50   3.213518     0.3638E-03  -5.57584  13.93960
     164.50   3.216166     0.5226E-03  -5.41847  13.54617
     165.50   3.218798     0.3412E-03  -5.60373  14.00932
     166.50   3.221414     0.6117E-03  -5.35013  13.37531
     167.20   3.223236     0.4279E-03  -5.50537  13.76343
     167.70   3.224533     0.1668E-02  -4.91435  12.28589
     168.50   3.226600     0.1883E-02  -4.86182  12.15455
     169.50   3.229170     0.2374E-02  -4.76117  11.90293
     170.50   3.231725     0.2556E-02  -4.72917  11.82293
     171.50   3.234264     0.2404E-02  -4.75569  11.88922
     172.50   3.236789     0.3131E-02  -4.64094  11.60236
     173.50   3.239300     0.3746E-02  -4.56310  11.40776
     174.50   3.241796     0.5213E-02  -4.41955  11.04887
     175.50   3.244277     0.7048E-02  -4.28863  10.72156
     176.50   3.246745     0.6648E-02  -4.31401  10.78502
     177.50   3.249198     0.7191E-02  -4.27986  10.69965
     178.50   3.251638     0.9568E-02  -4.15585  10.38963
     179.50   3.254065     0.1151E-01  -4.07577  10.18942
     180.50   3.256477     0.1247E-01  -4.04083  10.10209
     181.50   3.258877     0.1171E-01  -4.06804  10.17009
     182.50   3.261263     0.1495E-01  -3.96202   9.90504
     183.50   3.263636     0.1563E-01  -3.94266   9.85665
     184.50   3.265996     0.1206E-01  -4.05530  10.13825
     185.50   3.268344     0.1726E-01  -3.89971   9.74928
     186.50   3.270679     0.2041E-01  -3.82679   9.56696
     187.50   3.273001     0.2215E-01  -3.79134   9.47836
     188.50   3.275311     0.2387E-01  -3.75890   9.39724
     189.50   3.277609     0.3134E-01  -3.64063   9.10157
     190.50   3.279895     0.3063E-01  -3.65053   9.12633
     191.50   3.282169     0.3442E-01  -3.59985   8.99962
     192.50   3.284431     0.3501E-01  -3.59245   8.98114
     193.50   3.286681     0.2523E-01  -3.73483   9.33708
     194.50   3.288920     0.4549E-01  -3.47874   8.69684
     195.50   3.291147     0.4805E-01  -3.45496   8.63741
     196.70   3.293804     0.6231E-01  -3.34213   8.35531
     197.60   3.295787     0.6012E-01  -3.35766   8.39414
     198.40   3.297542     0.7056E-01  -3.28812   8.22030
     199.50   3.299943     0.7307E-01  -3.27293   8.18231
     200.50   3.302114     0.7181E-01  -3.28050   8.20126
     201.50   3.304275     0.7940E-01  -3.23685   8.09212
     202.50   3.306425     0.6537E-01  -3.32128   8.30321
     203.50   3.308564     0.8987E-01  -3.18305   7.95762
     204.50   3.310693     0.1040E+00  -3.11984   7.79960
     205.50   3.312812     0.1085E+00  -3.10119   7.75298
     206.50   3.314920     0.1089E+00  -3.09981   7.74952
     207.40   3.316809     0.1183E+00  -3.06371   7.65928
     207.80   3.317646     0.3498E+00  -2.59289   6.48223
     208.50   3.319106     0.4827E+00  -2.45300   6.13249
     209.50   3.321184     0.4436E+00  -2.48967   6.22417
     210.50   3.323252     0.4491E+00  -2.48436   6.21090
     211.50   3.325310     0.5405E+00  -2.40386   6.00964
     212.50   3.327359     0.4762E+00  -2.45885   6.14711
     213.50   3.329398     0.4835E+00  -2.45227   6.13068
     214.50   3.331427     0.6522E+00  -2.32232   5.80579
     215.50   3.333447     0.6063E+00  -2.35398   5.88496
     216.50   3.335458     0.5258E+00  -2.41586   6.03965
     217.50   3.337459     0.5138E+00  -2.42585   6.06463
     218.50   3.339452     0.7647E+00  -2.25320   5.63301
     219.50   3.341434     0.7127E+00  -2.28374   5.70936
     220.50   3.343409     0.7279E+00  -2.27461   5.68652
     221.50   3.345374     0.5274E+00  -2.41451   6.03627
     222.50   3.347330     0.7053E+00  -2.28829   5.72073
     223.50   3.349277     0.1041E+01  -2.11919   5.29796
     224.50   3.351216     0.9965E+00  -2.13820   5.34550
     225.50   3.353147     0.7199E+00  -2.27940   5.69851
     226.50   3.355068     0.5959E+00  -2.36149   5.90372
     227.50   3.356982     0.6613E+00  -2.31629   5.79073
     228.50   3.358886     0.1103E+01  -2.09416   5.23540
     229.50   3.360783     0.8356E+00  -2.21468   5.53670
     230.50   3.362671     0.1093E+01  -2.09812   5.24529
     231.50   3.364551     0.9002E+00  -2.18235   5.45587
     232.50   3.366423     0.7851E+00  -2.24174   5.60435
     233.50   3.368287     0.7058E+00  -2.28797   5.71992
     234.50   3.370143     0.4409E+00  -2.49234   6.23085
     235.50   3.371991     0.9094E+00  -2.17792   5.44480
     236.50   3.373831     0.5258E+00  -2.41587   6.03967
     237.50   3.375664     0.6934E+00  -2.29567   5.73917
     238.50   3.377488     0.4223E+00  -2.51104   6.27759
     239.50   3.379306     0.5387E+00  -2.40534   6.01336
     240.50   3.381115     0.5755E+00  -2.37666   5.94164
     241.50   3.382917     0.6297E+00  -2.33755   5.84388
     242.50   3.384712     0.1201E+01  -2.05705   5.14262
     243.50   3.386499     0.1262E+01  -2.03559   5.08897
     244.50   3.388279     0.1590E+01  -1.93518   4.83796
     245.50   3.390052     0.1756E+01  -1.89225   4.73064
     246.50   3.391817     0.1331E+01  -2.01242   5.03105
     247.50   3.393575     0.1152E+01  -2.07523   5.18807
     248.50   3.395326     0.4775E+00  -2.45768   6.14420
     249.50   3.397071     0.7482E+00  -2.26266   5.65666
     250.50   3.398808     0.1315E+01  -2.01786   5.04465
     251.30   3.400192     0.5294E+00  -2.41290   6.03224
     251.80   3.401056     0.3757E+00  -2.56183   6.40458
     252.50   3.402261     0.4361E+00  -2.49710   6.24276
     253.50   3.403978     0.9961E+00  -2.13839   5.34596
     254.50   3.405688     0.1048E+01  -2.11637   5.29093
     255.50   3.407391     0.2639E+01  -1.71528   4.28820
     256.50   3.409087     0.1742E+01  -1.89569   4.73924
     257.50   3.410777     0.2516E+01  -1.73599   4.33997
     258.50   3.412461     0.2155E+01  -1.80330   4.50826
     259.50   3.414137     0.1924E+01  -1.85237   4.63092
     260.50   3.415808     0.1643E+01  -1.92105   4.80263
     261.50   3.417472     0.1456E+01  -1.97364   4.93409
     262.50   3.419129     0.2115E+01  -1.81131   4.52828
     263.50   3.420781     0.4532E+01  -1.48039   3.70099
     264.50   3.422426     0.6104E+01  -1.35109   3.37773
     265.50   3.424065     0.9889E+01  -1.14150   2.85375
     266.50   3.425697     0.5465E+01  -1.39907   3.49767
     267.50   3.427324     0.6251E+01  -1.34071   3.35177
     268.50   3.428944     0.7849E+01  -1.24186   3.10464
     269.50   3.430559     0.4978E+01  -1.43961   3.59902
     270.50   3.432167     0.6758E+01  -1.30687   3.26718
     271.50   3.433770     0.4446E+01  -1.48867   3.72167
     272.50   3.435366     0.2819E+01  -1.68662   4.21656
     273.50   3.436957     0.4135E+01  -1.52021   3.80052
     274.50   3.438542     0.2336E+01  -1.76813   4.42034
     275.50   3.440122     0.3445E+01  -1.59945   3.99862
     276.50   3.441695     0.4834E+01  -1.45236   3.63091
     277.50   3.443263     0.5077E+01  -1.43108   3.57771
     278.50   3.444825     0.2780E+01  -1.69260   4.23149
     279.50   3.446382     0.1221E+01  -2.04981   5.12453
     280.50   3.447933     0.1512E+01  -1.95708   4.89269
     281.50   3.449478     0.4328E+01  -1.50035   3.75087
     282.50   3.451018     0.6498E+01  -1.32390   3.30975
     283.50   3.452553     0.5686E+01  -1.38188   3.45470
     284.50   3.454082     0.3247E+01  -1.62525   4.06313
     285.50   3.455606     0.1568E+01  -1.94124   4.85310
     286.50   3.457125     0.5108E+01  -1.42845   3.57112
     287.50   3.458638     0.8772E+01  -1.19359   2.98398
     288.50   3.460146     0.8149E+01  -1.22554   3.06386
     289.50   3.461648     0.1148E+02  -1.07687   2.69218
     291.00   3.463893     0.1741E+02  -0.89583   2.23957
     293.00   3.466868     0.1643E+02  -0.92108   2.30270
     295.00   3.469822     0.1625E+02  -0.92587   2.31467
     297.00   3.472756     0.1742E+02  -0.89566   2.23915
     299.00   3.475671     0.1893E+02  -0.85959   2.14898
     301.00   3.478566     0.1904E+02  -0.85705   2.14263
     303.00   3.481443     0.2134E+02  -0.80757   2.01892
     305.00   3.484300     0.2195E+02  -0.79533   1.98832
     307.00   3.487138     0.2154E+02  -0.80351   2.00877
     309.00   3.489959     0.1823E+02  -0.87594   2.18986
     311.00   3.492760     0.2286E+02  -0.77762   1.94404
     313.00   3.495544     0.1995E+02  -0.83683   2.09208
     315.00   3.498311     0.2014E+02  -0.83255   2.08137
     317.00   3.501059     0.2367E+02  -0.76249   1.90623
     319.00   3.503791     0.1986E+02  -0.83871   2.09677
     321.00   3.506505     0.2215E+02  -0.79134   1.97836
     323.00   3.509202     0.1885E+02  -0.86126   2.15315
     325.00   3.511883     0.2839E+02  -0.68351   1.70878
     327.00   3.514548     0.3316E+02  -0.61608   1.54021
     329.00   3.517196     0.3250E+02  -0.62481   1.56203
     331.00   3.519828     0.2925E+02  -0.67049   1.67622
     333.00   3.522444     0.3066E+02  -0.65005   1.62513
     335.00   3.525045     0.2963E+02  -0.66491   1.66227
     337.00   3.527630     0.2036E+02  -0.82779   2.06948
     339.00   3.530200     0.2448E+02  -0.74781   1.86953
     341.00   3.532754     0.2595E+02  -0.72256   1.80639
     343.00   3.535294     0.2849E+02  -0.68203   1.70508
     345.00   3.537819     0.3295E+02  -0.61886   1.54714
     347.00   3.540329     0.3471E+02  -0.59626   1.49065
     349.00   3.542825     0.3906E+02  -0.54497   1.36242
     351.00   3.545307     0.4124E+02  -0.52137   1.30343
     353.00   3.547775     0.3619E+02  -0.57808   1.44519
     355.00   3.550228     0.4024E+02  -0.53203   1.33009
     357.00   3.552668     0.3015E+02  -0.65737   1.64342
     359.00   3.555094     0.3241E+02  -0.62595   1.56487
     361.00   3.557507     0.4105E+02  -0.52332   1.30831
     363.00   3.559907     0.4183E+02  -0.51514   1.28785
     364.00   3.561101     0.4129E+02  -0.52078   1.30195
     365.00   3.562293     0.4335E+02  -0.49969   1.24923
     367.00   3.564666     0.4752E+02  -0.45981   1.14953
     369.00   3.567026     0.4137E+02  -0.52002   1.30005
     371.00   3.569374     0.4290E+02  -0.50417   1.26043
     373.00   3.571709     0.2522E+02  -0.73491   1.83729
     375.00   3.574031     0.2948E+02  -0.66716   1.66789
     377.00   3.576341     0.4142E+02  -0.51941   1.29854
     379.00   3.578639     0.4263E+02  -0.50699   1.26747
     381.00   3.580925     0.3848E+02  -0.55147   1.37866
     383.00   3.583199     0.1947E+02  -0.84731   2.11827
     385.00   3.585461     0.2791E+02  -0.69093   1.72733
     387.00   3.587711     0.2753E+02  -0.69691   1.74227
     389.00   3.589950     0.3835E+02  -0.55296   1.38240
     391.00   3.592177     0.4836E+02  -0.45223   1.13056
     393.00   3.594393     0.2176E+02  -0.79907   1.99767
     395.00   3.596597     0.4112E+02  -0.52265   1.30662
     397.00   3.598790     0.2794E+02  -0.69048   1.72620
     399.00   3.600973     0.6647E+02  -0.31405   0.78514
     401.00   3.603144     0.7439E+02  -0.26517   0.66292
     403.00   3.605305     0.7283E+02  -0.27437   0.68592
     405.00   3.607455     0.6948E+02  -0.29480   0.73699
     407.00   3.609594     0.6460E+02  -0.32644   0.81609
     409.00   3.611723     0.8383E+02  -0.21326   0.53314
     411.00   3.613842     0.7833E+02  -0.24277   0.60692
     413.00   3.615950     0.7491E+02  -0.26213   0.65532
     415.00   3.618048     0.7258E+02  -0.27589   0.68971
     417.00   3.620136     0.7423E+02  -0.26612   0.66530
     419.00   3.622214     0.7240E+02  -0.27691   0.69227
     421.00   3.624282     0.7341E+02  -0.27091   0.67728
     423.00   3.626340     0.6827E+02  -0.30243   0.75607
     425.00   3.628389     0.7473E+02  -0.26315   0.65788
     427.00   3.630428     0.6993E+02  -0.29201   0.73002
     429.00   3.632457     0.6518E+02  -0.32254   0.80634
     431.00   3.634477     0.5633E+02  -0.38592   0.96480
     433.00   3.636488     0.8685E+02  -0.19790   0.49475
     435.00   3.638489     0.8748E+02  -0.19478   0.48694
     437.00   3.640481     0.9484E+02  -0.15968   0.39919
     439.00   3.642465     0.8237E+02  -0.22092   0.55230
     441.00   3.644439     0.8810E+02  -0.19170   0.47925
     443.00   3.646404     0.9650E+02  -0.15216   0.38040
     445.00   3.648360     0.9777E+02  -0.14647   0.36618
     447.00   3.650307     0.1059E+03  -0.11174   0.27934
     449.00   3.652246     0.1095E+03  -0.09725   0.24312
     451.00   3.654176     0.1268E+03  -0.03371   0.08427
     453.00   3.656098     0.1090E+03  -0.09921   0.24803
     455.00   3.658011     0.1155E+03  -0.07415   0.18536
     457.00   3.659916     0.1262E+03  -0.03564   0.08909
     459.00   3.661813     0.1181E+03  -0.06453   0.16131
     461.00   3.663701     0.1223E+03  -0.04928   0.12320
     463.00   3.665581     0.1188E+03  -0.06173   0.15434
     465.00   3.667453     0.1206E+03  -0.05533   0.13833
     467.00   3.669317     0.1269E+03  -0.03313   0.08282
     469.00   3.671173     0.1238E+03  -0.04410   0.11024
     471.00   3.673021     0.1211E+03  -0.05342   0.13354
     473.00   3.674861     0.1252E+03  -0.03905   0.09762
     475.00   3.676694     0.1287E+03  -0.02716   0.06790
     477.00   3.678518     0.1253E+03  -0.03862   0.09656
     479.00   3.680336     0.1268E+03  -0.03363   0.08407
     481.00   3.682145     0.1276E+03  -0.03093   0.07733
     483.00   3.683947     0.1325E+03  -0.01443   0.03606
     485.00   3.685742     0.1266E+03  -0.03421   0.08554
     487.00   3.687529     0.1166E+03  -0.07016   0.17539
     489.00   3.689309     0.1288E+03  -0.02683   0.06708
     491.00   3.691082     0.1297E+03  -0.02386   0.05964
     493.00   3.692847     0.1271E+03  -0.03252   0.08131
     495.00   3.694605     0.1324E+03  -0.01479   0.03697
     497.00   3.696356     0.1268E+03  -0.03371   0.08426
     499.00   3.698101     0.1176E+03  -0.06642   0.16604
     501.00   3.699838     0.1102E+03  -0.09468   0.23670
     503.00   3.701568     0.1184E+03  -0.06329   0.15821
     505.00   3.703291     0.1183E+03  -0.06377   0.15942
     507.00   3.705008     0.1238E+03  -0.04381   0.10953
     509.00   3.706718     0.1167E+03  -0.06969   0.17422
     511.00   3.708421     0.1200E+03  -0.05757   0.14392
     513.00   3.710117     0.1161E+03  -0.07180   0.17949
     515.00   3.711807     0.1116E+03  -0.08883   0.22207
     517.00   3.713490     0.9856E+02  -0.14295   0.35739
     519.00   3.715167     0.1036E+03  -0.12128   0.30320
     521.00   3.716838     0.1146E+03  -0.07730   0.19325
     523.00   3.718502     0.1276E+03  -0.03082   0.07705
     525.00   3.720159     0.1343E+03  -0.00849   0.02123
     527.00   3.721811     0.1162E+03  -0.07144   0.17861
     529.00   3.723456     0.1376E+03   0.00192  -0.00480
     531.00   3.725095     0.1475E+03   0.03207  -0.08017
     533.00   3.726727     0.1278E+03  -0.03019   0.07549
     535.00   3.728354     0.1424E+03   0.01679  -0.04196
     537.00   3.729974     0.1409E+03   0.01224  -0.03060
     539.00   3.731589     0.1377E+03   0.00235  -0.00589
     541.00   3.733197     0.1357E+03  -0.00424   0.01060
     543.00   3.734800     0.1380E+03   0.00317  -0.00793
     545.00   3.736397     0.1408E+03   0.01185  -0.02962
     547.00   3.737987     0.1374E+03   0.00124  -0.00311
     549.00   3.739572     0.1397E+03   0.00865  -0.02162
     551.00   3.741152     0.1370E+03   0.00000   0.00000
     553.00   3.742725     0.1431E+03   0.01890  -0.04724
     555.00   3.744293     0.1459E+03   0.02751  -0.06878
     557.00   3.745855     0.1427E+03   0.01772  -0.04431
     559.00   3.747412     0.1385E+03   0.00484  -0.01211
     561.00   3.748963     0.1437E+03   0.02065  -0.05163
     563.00   3.750508     0.1429E+03   0.01825  -0.04562
     565.00   3.752048     0.1458E+03   0.02722  -0.06805
     567.00   3.753583     0.1423E+03   0.01647  -0.04117
     569.00   3.755112     0.1474E+03   0.03174  -0.07936
     571.00   3.756636     0.1424E+03   0.01694  -0.04234
     573.00   3.758155     0.1555E+03   0.05506  -0.13764
     575.00   3.759668     0.1501E+03   0.03961  -0.09902
     577.00   3.761176     0.1520E+03   0.04515  -0.11289
     579.00   3.762679     0.1458E+03   0.02720  -0.06800
     581.00   3.764176     0.1524E+03   0.04641  -0.11601
     583.00   3.765669     0.1566E+03   0.05804  -0.14510
     585.00   3.767156     0.1503E+03   0.04038  -0.10094
     587.00   3.768638     0.1499E+03   0.03921  -0.09803
     589.00   3.770115     0.1348E+03  -0.00684   0.01711
     591.00   3.771587     0.1475E+03   0.03219  -0.08048
     593.00   3.773055     0.1484E+03   0.03476  -0.08689
     595.00   3.774517     0.1489E+03   0.03613  -0.09033
     597.00   3.775974     0.1522E+03   0.04575  -0.11438
     599.00   3.777427     0.1501E+03   0.03967  -0.09918
     601.00   3.778874     0.1483E+03   0.03457  -0.08644
     603.00   3.780317     0.1530E+03   0.04789  -0.11971
     605.00   3.781755     0.1563E+03   0.05727  -0.14317
     607.00   3.783189     0.1559E+03   0.05604  -0.14011
     609.00   3.784617     0.1505E+03   0.04096  -0.10241
     611.00   3.786041     0.1517E+03   0.04434  -0.11085
     613.00   3.787461     0.1434E+03   0.01977  -0.04943
     615.00   3.788875     0.1472E+03   0.03119  -0.07797
     617.00   3.790285     0.1367E+03  -0.00080   0.00201
     619.00   3.791691     0.1453E+03   0.02555  -0.06387
     621.00   3.793092     0.1436E+03   0.02038  -0.05095
     623.00   3.794488     0.1389E+03   0.00588  -0.01471
     625.00   3.795880     0.1350E+03  -0.00639   0.01597
     627.00   3.797267     0.1421E+03   0.01601  -0.04003
     629.00   3.798651     0.1459E+03   0.02751  -0.06878
     631.00   3.800029     0.1432E+03   0.01915  -0.04788
     633.00   3.801404     0.1461E+03   0.02801  -0.07001
     635.00   3.802774     0.1474E+03   0.03185  -0.07963
     637.00   3.804139     0.1473E+03   0.03154  -0.07885
     639.00   3.805501     0.1505E+03   0.04086  -0.10215
     641.00   3.806858     0.1476E+03   0.03254  -0.08135
     643.00   3.808211     0.1494E+03   0.03770  -0.09424
     645.00   3.809560     0.1489E+03   0.03624  -0.09061
     647.00   3.810904     0.1488E+03   0.03586  -0.08966
     649.00   3.812245     0.1462E+03   0.02816  -0.07041
     651.00   3.813581     0.1520E+03   0.04519  -0.11297
     653.00   3.814913     0.1529E+03   0.04776  -0.11939
     655.00   3.816241     0.1495E+03   0.03783  -0.09457
     657.00   3.817565     0.1426E+03   0.01757  -0.04392
     659.00   3.818885     0.1490E+03   0.03641  -0.09102
     661.00   3.820201     0.1502E+03   0.04013  -0.10033
     663.00   3.821513     0.1479E+03   0.03319  -0.08296
     665.00   3.822822     0.1463E+03   0.02849  -0.07121
     667.00   3.824126     0.1420E+03   0.01564  -0.03909
     669.00   3.825426     0.1431E+03   0.01905  -0.04762
     671.00   3.826723     0.1364E+03  -0.00180   0.00450
     673.00   3.828015     0.1397E+03   0.00847  -0.02116
     675.00   3.829304     0.1371E+03   0.00032  -0.00080
     677.00   3.830589     0.1380E+03   0.00320  -0.00801
     679.00   3.831870     0.1366E+03  -0.00118   0.00294
     681.00   3.833147     0.1378E+03   0.00244  -0.00609
     683.00   3.834421     0.1402E+03   0.01010  -0.02525
     685.00   3.835690     0.1370E+03   0.00007  -0.00018
     687.00   3.836957     0.1399E+03   0.00901  -0.02252
     689.00   3.838219     0.1432E+03   0.01920  -0.04801
     691.00   3.839478     0.1446E+03   0.02354  -0.05885
     693.00   3.840733     0.1443E+03   0.02252  -0.05631
     695.00   3.841985     0.1452E+03   0.02524  -0.06309
     697.00   3.843233     0.1487E+03   0.03572  -0.08931
     699.00   3.844477     0.1496E+03   0.03835  -0.09587
     701.00   3.845718     0.1492E+03   0.03711  -0.09278
     703.00   3.846955     0.1508E+03   0.04166  -0.10416
     705.00   3.848189     0.1475E+03   0.03209  -0.08023
     707.00   3.849419     0.1392E+03   0.00695  -0.01737
     709.00   3.850646     0.1316E+03  -0.01727   0.04318
     711.00   3.851870     0.1270E+03  -0.03272   0.08180
     713.00   3.853090     0.1234E+03  -0.04534   0.11335
     715.00   3.854306     0.1230E+03  -0.04664   0.11660
     717.00   3.855519     0.1253E+03  -0.03875   0.09688
     719.00   3.856729     0.1230E+03  -0.04683   0.11707
     721.00   3.857935     0.1271E+03  -0.03268   0.08169
     723.00   3.859138     0.1315E+03  -0.01773   0.04432
     725.00   3.860338     0.1337E+03  -0.01047   0.02617
     727.00   3.861534     0.1360E+03  -0.00327   0.00817
     729.00   3.862728     0.1367E+03  -0.00103   0.00258
     731.00   3.863917     0.1437E+03   0.02093  -0.05233
     733.00   3.865104     0.1442E+03   0.02223  -0.05557
     735.00   3.866287     0.1492E+03   0.03723  -0.09307
     737.00   3.867467     0.1551E+03   0.05392  -0.13481
     739.00   3.868644     0.1522E+03   0.04575  -0.11437
     741.00   3.869818     0.1551E+03   0.05402  -0.13506
     743.00   3.870989     0.1599E+03   0.06712  -0.16781
     745.00   3.872156     0.1592E+03   0.06523  -0.16306
     747.00   3.873321     0.1650E+03   0.08071  -0.20178
     749.00   3.874482     0.1644E+03   0.07925  -0.19812
     751.00   3.875640     0.1656E+03   0.08238  -0.20594
     753.00   3.876795     0.1691E+03   0.09140  -0.22849
     755.00   3.877947     0.1706E+03   0.09537  -0.23842
     757.00   3.879096     0.1706E+03   0.09518  -0.23795
     759.00   3.880242     0.1636E+03   0.07701  -0.19253
     761.00   3.881385     0.1569E+03   0.05885  -0.14712
     763.00   3.882524     0.1497E+03   0.03869  -0.09672
     765.00   3.883662     0.1421E+03   0.01582  -0.03955
     767.00   3.884795     0.1331E+03  -0.01235   0.03087
     769.00   3.885926     0.1359E+03  -0.00347   0.00867
     771.00   3.887054     0.1334E+03  -0.01166   0.02915
     773.00   3.888180     0.1337E+03  -0.01045   0.02612
     775.00   3.889302     0.1327E+03  -0.01377   0.03441
     777.00   3.890421     0.1351E+03  -0.00607   0.01518
     779.00   3.891537     0.1357E+03  -0.00416   0.01041
     781.00   3.892651     0.1364E+03  -0.00190   0.00475
     783.00   3.893762     0.1365E+03  -0.00147   0.00368
     785.00   3.894870     0.1349E+03  -0.00652   0.01631
     787.00   3.895975     0.1380E+03   0.00311  -0.00778
     789.00   3.897077     0.1379E+03   0.00291  -0.00728
     791.00   3.898176     0.1342E+03  -0.00890   0.02226
     793.00   3.899273     0.1359E+03  -0.00348   0.00869
     795.00   3.900367     0.1362E+03  -0.00258   0.00645
     797.00   3.901458     0.1403E+03   0.01036  -0.02589
     799.00   3.902547     0.1407E+03   0.01166  -0.02914
     801.00   3.903632     0.1445E+03   0.02329  -0.05823
     803.00   3.904716     0.1460E+03   0.02779  -0.06949
     805.00   3.905796     0.1459E+03   0.02732  -0.06831
     807.00   3.906873     0.1510E+03   0.04226  -0.10564
     809.00   3.907948     0.1505E+03   0.04095  -0.10238
     811.00   3.909021     0.1525E+03   0.04672  -0.11680
     813.00   3.910090     0.1581E+03   0.06235  -0.15586
     815.00   3.911158     0.1610E+03   0.07022  -0.17555
     817.00   3.912222     0.1622E+03   0.07340  -0.18349
     819.00   3.913284     0.1592E+03   0.06524  -0.16309
     821.00   3.914343     0.1525E+03   0.04659  -0.11647
     823.00   3.915400     0.1529E+03   0.04782  -0.11956
     825.00   3.916454     0.1523E+03   0.04616  -0.11540
     827.00   3.917506     0.1530E+03   0.04805  -0.12012
     829.00   3.918555     0.1510E+03   0.04238  -0.10595
     831.00   3.919601     0.1463E+03   0.02856  -0.07141
     833.00   3.920645     0.1450E+03   0.02471  -0.06179
     835.00   3.921686     0.1444E+03   0.02302  -0.05754
     837.00   3.922725     0.1454E+03   0.02600  -0.06499
     839.00   3.923762     0.1414E+03   0.01390  -0.03476
     841.00   3.924796     0.1457E+03   0.02677  -0.06691
     843.00   3.925828     0.1408E+03   0.01195  -0.02988
     845.00   3.926857     0.1334E+03  -0.01139   0.02848
     847.00   3.927883     0.1328E+03  -0.01363   0.03407
     849.00   3.928908     0.1356E+03  -0.00442   0.01104
     851.00   3.929929     0.1298E+03  -0.02350   0.05875
     853.00   3.930949     0.1352E+03  -0.00562   0.01406
     855.00   3.931966     0.1319E+03  -0.01654   0.04136
     857.00   3.932981     0.1399E+03   0.00916  -0.02289
     859.00   3.933993     0.1387E+03   0.00554  -0.01385
     861.00   3.935003     0.1415E+03   0.01407  -0.03517
     863.00   3.936011     0.1447E+03   0.02393  -0.05983
     865.00   3.937016     0.1461E+03   0.02809  -0.07022
     867.00   3.938019     0.1382E+03   0.00371  -0.00928
     869.00   3.939020     0.1445E+03   0.02329  -0.05823
     871.00   3.940018     0.1492E+03   0.03710  -0.09274
     873.00   3.941014     0.1506E+03   0.04107  -0.10268
     875.00   3.942008     0.1499E+03   0.03918  -0.09796
     877.00   3.943000     0.1516E+03   0.04410  -0.11026
     879.00   3.943989     0.1552E+03   0.05420  -0.13550
     881.00   3.944976     0.1529E+03   0.04779  -0.11946
     883.00   3.945961     0.1548E+03   0.05318  -0.13296
     885.00   3.946943     0.1516E+03   0.04398  -0.10995
     887.00   3.947924     0.1447E+03   0.02377  -0.05942
     889.00   3.948902     0.1450E+03   0.02484  -0.06210
     891.00   3.949878     0.1469E+03   0.03044  -0.07609
     893.00   3.950851     0.1451E+03   0.02504  -0.06259
     895.00   3.951823     0.1459E+03   0.02752  -0.06879
     897.00   3.952792     0.1465E+03   0.02908  -0.07271
     899.00   3.953760     0.1469E+03   0.03028  -0.07571
     901.00   3.954725     0.1440E+03   0.02183  -0.05457
     903.00   3.955688     0.1499E+03   0.03909  -0.09772
     905.00   3.956649     0.1547E+03   0.05289  -0.13223
     907.00   3.957607     0.1555E+03   0.05507  -0.13768
     909.00   3.958564     0.1537E+03   0.04999  -0.12497
     911.00   3.959518     0.1556E+03   0.05524  -0.13810
     913.00   3.960471     0.1577E+03   0.06108  -0.15269
     915.00   3.961421     0.1568E+03   0.05869  -0.14672
     917.00   3.962369     0.1566E+03   0.05815  -0.14537
     919.00   3.963315     0.1578E+03   0.06138  -0.15344
     921.00   3.964260     0.1518E+03   0.04456  -0.11139
     923.00   3.965202     0.1501E+03   0.03980  -0.09950
     925.00   3.966142     0.1481E+03   0.03398  -0.08495
     927.00   3.967080     0.1502E+03   0.04006  -0.10014
     929.00   3.968016     0.1465E+03   0.02929  -0.07323
     931.00   3.968950     0.1472E+03   0.03130  -0.07825
     933.00   3.969882     0.1482E+03   0.03422  -0.08554
     935.00   3.970812     0.1481E+03   0.03374  -0.08434
     937.00   3.971740     0.1449E+03   0.02447  -0.06117
     939.00   3.972666     0.1483E+03   0.03441  -0.08602
     941.00   3.973590     0.1465E+03   0.02912  -0.07281
     943.00   3.974512     0.1492E+03   0.03703  -0.09256
     945.00   3.975432     0.1476E+03   0.03256  -0.08139
     947.00   3.976350     0.1509E+03   0.04206  -0.10515
     949.00   3.977266     0.1514E+03   0.04358  -0.10895
     951.00   3.978180     0.1478E+03   0.03311  -0.08278
     953.00   3.979093     0.1498E+03   0.03874  -0.09685
     955.00   3.980003     0.1482E+03   0.03420  -0.08549
     957.00   3.980912     0.1495E+03   0.03799  -0.09497
     959.00   3.981819     0.1515E+03   0.04362  -0.10904
     961.00   3.982723     0.1499E+03   0.03923  -0.09806
     963.00   3.983626     0.1512E+03   0.04280  -0.10701
     965.00   3.984527     0.1491E+03   0.03691  -0.09228
     967.00   3.985426     0.1495E+03   0.03806  -0.09514
     969.00   3.986324     0.1511E+03   0.04245  -0.10613
     971.00   3.987219     0.1490E+03   0.03637  -0.09092
     973.00   3.988113     0.1476E+03   0.03227  -0.08067
     975.00   3.989005     0.1473E+03   0.03153  -0.07882
     977.00   3.989895     0.1478E+03   0.03300  -0.08250
     979.00   3.990783     0.1463E+03   0.02869  -0.07173
     981.00   3.991669     0.1492E+03   0.03719  -0.09297
     983.00   3.992553     0.1481E+03   0.03376  -0.08440
     985.00   3.993436     0.1488E+03   0.03589  -0.08972
     987.00   3.994317     0.1478E+03   0.03301  -0.08252
     989.00   3.995196     0.1476E+03   0.03229  -0.08073
     991.00   3.996074     0.1474E+03   0.03168  -0.07920
     993.00   3.996949     0.1480E+03   0.03352  -0.08380
     995.00   3.997823     0.1484E+03   0.03470  -0.08675
     997.00   3.998695     0.1484E+03   0.03489  -0.08723
     999.00   3.999566     0.1481E+03   0.03375  -0.08437
    1003.00   4.001301     0.1480E+03   0.03372  -0.08430
    1008.00   4.003461     0.1472E+03   0.03121  -0.07803
    1013.00   4.005610     0.1486E+03   0.03539  -0.08848
    1018.00   4.007748     0.1471E+03   0.03098  -0.07746
    1023.00   4.009875     0.1475E+03   0.03202  -0.08006
    1028.00   4.011993     0.1476E+03   0.03242  -0.08105
    1033.00   4.014100     0.1462E+03   0.02835  -0.07087
    1038.00   4.016197     0.1455E+03   0.02624  -0.06561
    1043.00   4.018284     0.1461E+03   0.02793  -0.06981
    1048.00   4.020361     0.1452E+03   0.02525  -0.06313
    1053.00   4.022429     0.1442E+03   0.02219  -0.05547
    1058.00   4.024486     0.1421E+03   0.01591  -0.03977
    1063.00   4.026533     0.1414E+03   0.01376  -0.03441
    1068.00   4.028571     0.1405E+03   0.01085  -0.02713
    1073.00   4.030600     0.1409E+03   0.01229  -0.03072
    1078.00   4.032619     0.1400E+03   0.00931  -0.02328
    1083.00   4.034628     0.1382E+03   0.00381  -0.00953
    1088.00   4.036629     0.1374E+03   0.00136  -0.00340
    1093.00   4.038620     0.1370E+03  -0.00011   0.00027
    1098.00   4.040603     0.1350E+03  -0.00635   0.01587
    1103.00   4.042576     0.1344E+03  -0.00821   0.02052
    1108.00   4.044539     0.1323E+03  -0.01511   0.03778
    1113.00   4.046495     0.1323E+03  -0.01513   0.03782
    1118.00   4.048442     0.1316E+03  -0.01729   0.04321
    1123.00   4.050380     0.1318E+03  -0.01687   0.04216
    1128.00   4.052309     0.1311E+03  -0.01893   0.04734
    1133.00   4.054230     0.1311E+03  -0.01907   0.04766
    1138.00   4.056142     0.1306E+03  -0.02081   0.05202
    1143.00   4.058046     0.1298E+03  -0.02341   0.05852
    1148.00   4.059942     0.1307E+03  -0.02040   0.05099
    1153.00   4.061830     0.1306E+03  -0.02064   0.05160
    1158.00   4.063708     0.1296E+03  -0.02400   0.06000
    1163.00   4.065579     0.1284E+03  -0.02798   0.06994
    1168.00   4.067443     0.1284E+03  -0.02804   0.07009
    1173.00   4.069298     0.1287E+03  -0.02711   0.06777
    1178.00   4.071145     0.1269E+03  -0.03310   0.08275
    1183.00   4.072985     0.1259E+03  -0.03648   0.09119
    1188.00   4.074817     0.1247E+03  -0.04067   0.10167
    1193.00   4.076640     0.1261E+03  -0.03593   0.08983
    1198.00   4.078457     0.1233E+03  -0.04556   0.11391
    1203.00   4.080266     0.1249E+03  -0.04003   0.10008
    1208.00   4.082067     0.1241E+03  -0.04281   0.10701
    1213.00   4.083861     0.1242E+03  -0.04248   0.10620
    1218.00   4.085648     0.1243E+03  -0.04219   0.10548
    1223.00   4.087426     0.1237E+03  -0.04431   0.11077
    1228.00   4.089198     0.1230E+03  -0.04663   0.11658
    1233.00   4.090963     0.1225E+03  -0.04865   0.12163
    1238.00   4.092721     0.1221E+03  -0.04979   0.12448
    1243.00   4.094471     0.1207E+03  -0.05491   0.13728
    1248.00   4.096214     0.1208E+03  -0.05470   0.13675
    1253.00   4.097951     0.1200E+03  -0.05752   0.14380
    1258.00   4.099681     0.1195E+03  -0.05933   0.14833
    1263.00   4.101403     0.1192E+03  -0.06057   0.15143
    1268.00   4.103119     0.1184E+03  -0.06318   0.15795
    1273.00   4.104828     0.1183E+03  -0.06356   0.15891
    1278.00   4.106531     0.1184E+03  -0.06337   0.15842
    1283.00   4.108227     0.1158E+03  -0.07301   0.18252
    1288.00   4.109916     0.1168E+03  -0.06912   0.17279
    1293.00   4.111598     0.1159E+03  -0.07250   0.18124
    1298.00   4.113275     0.1166E+03  -0.06996   0.17489
    1303.00   4.114944     0.1156E+03  -0.07387   0.18468
    1308.00   4.116608     0.1156E+03  -0.07368   0.18421
    1313.00   4.118265     0.1139E+03  -0.08033   0.20084
    1318.00   4.119915     0.1134E+03  -0.08196   0.20489
    1323.00   4.121560     0.1133E+03  -0.08230   0.20576
    1328.00   4.123198     0.1119E+03  -0.08799   0.21998
    1333.00   4.124830     0.1119E+03  -0.08772   0.21930
    1338.00   4.126456     0.1110E+03  -0.09120   0.22799
    1343.00   4.128076     0.1110E+03  -0.09118   0.22794
    1348.00   4.129690     0.1102E+03  -0.09432   0.23580
    1353.00   4.131298     0.1097E+03  -0.09657   0.24143
    1358.00   4.132900     0.1083E+03  -0.10200   0.25500
    1363.00   4.134496     0.1081E+03  -0.10277   0.25692
    1368.00   4.136086     0.1088E+03  -0.10021   0.25053
    1373.00   4.137671     0.1093E+03  -0.09810   0.24525
    1378.00   4.139249     0.1093E+03  -0.09809   0.24523
    1383.00   4.140822     0.1093E+03  -0.09813   0.24532
    1388.00   4.142389     0.1083E+03  -0.10195   0.25487
    1393.00   4.143951     0.9976E+02  -0.13774   0.34434
    1398.00   4.145507     0.1005E+03  -0.13471   0.33678
    1403.00   4.147058     0.9985E+02  -0.13733   0.34334
    1408.00   4.148602     0.1005E+03  -0.13448   0.33619
    1413.00   4.150142     0.9986E+02  -0.13729   0.34323
    1418.00   4.151676     0.1005E+03  -0.13445   0.33613
    1423.00   4.153205     0.9993E+02  -0.13698   0.34244
    1428.00   4.154728     0.9920E+02  -0.14017   0.35043
    1433.00   4.156246     0.1009E+03  -0.13294   0.33236
    1438.00   4.157759     0.1014E+03  -0.13060   0.32650
    1443.00   4.159266     0.1000E+03  -0.13649   0.34123
    1448.00   4.160769     0.1015E+03  -0.13008   0.32520
    1453.00   4.162266     0.1010E+03  -0.13251   0.33128
    1457.00   4.163460     0.1015E+03  -0.13040   0.32599
    1462.00   4.164948     0.9690E+02  -0.15034   0.37585
    1468.00   4.166726     0.9758E+02  -0.14730   0.36824
    1473.00   4.168202     0.9721E+02  -0.14896   0.37241
    1478.00   4.169674     0.9805E+02  -0.14522   0.36306
    1483.00   4.171141     0.9865E+02  -0.14259   0.35647
    1488.00   4.172603     0.9831E+02  -0.14407   0.36017
    1493.00   4.174060     0.1003E+03  -0.13536   0.33841
    1498.00   4.175512     0.1001E+03  -0.13634   0.34084
    1503.00   4.176959     0.9933E+02  -0.13958   0.34896
    1508.00   4.178401     0.9982E+02  -0.13745   0.34362
    1513.00   4.179839     0.1014E+03  -0.13076   0.32690
    1518.00   4.181272     0.1018E+03  -0.12878   0.32196
    1523.00   4.182700     0.1019E+03  -0.12831   0.32076
    1528.00   4.184123     0.1026E+03  -0.12538   0.31345
    1533.00   4.185542     0.1025E+03  -0.12588   0.31469
    1538.00   4.186956     0.1003E+03  -0.13555   0.33888
    1543.00   4.188366     0.1014E+03  -0.13080   0.32700
    1548.00   4.189771     0.1018E+03  -0.12902   0.32254
    1553.00   4.191172     0.1015E+03  -0.13027   0.32567
    1558.00   4.192567     0.9832E+02  -0.14402   0.36006
    1563.00   4.193959     0.9949E+02  -0.13889   0.34723
    1568.00   4.195346     0.9964E+02  -0.13823   0.34557
    1573.00   4.196729     0.1015E+03  -0.13035   0.32588
    1578.00   4.198107     0.9255E+02  -0.17029   0.42571
    1583.00   4.199481     0.9596E+02  -0.15460   0.38650
    1588.00   4.200850     0.9669E+02  -0.15127   0.37818
    1593.00   4.202216     0.9937E+02  -0.13943   0.34858
    1598.00   4.203577     0.1018E+03  -0.12907   0.32267
    1605.00   4.205475     0.9636E+02  -0.15278   0.38195
    1615.00   4.208173     0.9953E+02  -0.13871   0.34678
    1625.00   4.210854     0.9524E+02  -0.15784   0.39461
    1635.00   4.213518     0.9877E+02  -0.14204   0.35510
    1645.00   4.216166     0.9490E+02  -0.15940   0.39849
    1655.00   4.218798     0.9670E+02  -0.15125   0.37812
    1665.00   4.221415     0.9373E+02  -0.16481   0.41201
    1675.00   4.224015     0.9450E+02  -0.16124   0.40311
    1685.00   4.226600     0.9465E+02  -0.16057   0.40143
    1695.00   4.229170     0.9248E+02  -0.17063   0.42657
    1705.00   4.231725     0.9126E+02  -0.17639   0.44098
    1715.00   4.234264     0.8931E+02  -0.18579   0.46448
    1725.00   4.236789     0.8768E+02  -0.19378   0.48445
    1735.00   4.239300     0.8514E+02  -0.20654   0.51636
    1745.00   4.241796     0.8395E+02  -0.21265   0.53164
    1755.00   4.244277     0.8286E+02  -0.21833   0.54582
    1765.00   4.246745     0.8085E+02  -0.22901   0.57252
    1775.00   4.249198     0.7902E+02  -0.23893   0.59733
    1785.00   4.251638     0.7787E+02  -0.24532   0.61330
    1795.00   4.254065     0.7605E+02  -0.25556   0.63891
    1805.00   4.256477     0.7443E+02  -0.26491   0.66227
    1815.00   4.258877     0.7313E+02  -0.27258   0.68145
    1825.00   4.261263     0.7206E+02  -0.27898   0.69746
    1835.00   4.263636     0.7100E+02  -0.28541   0.71353
    1845.00   4.265996     0.6968E+02  -0.29358   0.73395
    1855.00   4.268344     0.6897E+02  -0.29799   0.74498
    1865.00   4.270679     0.6747E+02  -0.30757   0.76894
    1875.00   4.273001     0.6612E+02  -0.31635   0.79089
    1885.00   4.275311     0.6539E+02  -0.32115   0.80287
    1895.00   4.277609     0.6331E+02  -0.33519   0.83797
    1905.00   4.279895     0.6312E+02  -0.33652   0.84131
    1915.00   4.282169     0.6179E+02  -0.34577   0.86443
    1925.00   4.284431     0.6068E+02  -0.35361   0.88403
    1935.00   4.286681     0.5909E+02  -0.36514   0.91284
    1945.00   4.288919     0.5769E+02  -0.37555   0.93886
    1955.00   4.291147     0.5710E+02  -0.38004   0.95010
    1965.00   4.293363     0.5596E+02  -0.38880   0.97200
    1975.00   4.295567     0.5460E+02  -0.39950   0.99876
    1985.00   4.297760     0.5378E+02  -0.40609   1.01522
    1995.00   4.299943     0.5306E+02  -0.41192   1.02979
    2005.00   4.302114     0.5259E+02  -0.41581   1.03953
    2015.00   4.304275     0.5185E+02  -0.42192   1.05479
    2025.00   4.306425     0.5074E+02  -0.43131   1.07828
    2035.00   4.308564     0.5006E+02  -0.43716   1.09289
    2045.00   4.310693     0.4973E+02  -0.44009   1.10024
    2055.00   4.312812     0.4895E+02  -0.44689   1.11722
    2065.00   4.314920     0.4819E+02  -0.45375   1.13437
    2075.00   4.317018     0.4763E+02  -0.45879   1.14697
    2085.00   4.319106     0.4696E+02  -0.46496   1.16240
    2095.00   4.321184     0.4618E+02  -0.47224   1.18060
    2105.00   4.323252     0.4582E+02  -0.47566   1.18915
    2115.00   4.325311     0.4508E+02  -0.48270   1.20675
    2125.00   4.327359     0.4443E+02  -0.48900   1.22251
    2135.00   4.329398     0.4396E+02  -0.49358   1.23396
    2145.00   4.331428     0.4331E+02  -0.50007   1.25018
    2155.00   4.333447     0.4267E+02  -0.50652   1.26631
    2165.00   4.335458     0.4191E+02  -0.51439   1.28596
    2175.00   4.337460     0.4133E+02  -0.52045   1.30112
    2185.00   4.339452     0.4081E+02  -0.52590   1.31476
    2195.00   4.341434     0.4028E+02  -0.53155   1.32887
    2205.00   4.343409     0.3940E+02  -0.54114   1.35284
    2215.00   4.345374     0.3916E+02  -0.54384   1.35960
    2225.00   4.347330     0.3832E+02  -0.55324   1.38310
    2235.00   4.349277     0.3781E+02  -0.55905   1.39761
    2245.00   4.351216     0.3726E+02  -0.56541   1.41353
    2255.00   4.353147     0.3677E+02  -0.57116   1.42791
    2265.00   4.355068     0.3606E+02  -0.57969   1.44922
    2275.00   4.356981     0.3573E+02  -0.58369   1.45924
    2285.00   4.358886     0.3503E+02  -0.59220   1.48050
    2295.00   4.360783     0.2793E+02  -0.69061   1.72651
    2305.00   4.362671     0.3110E+02  -0.64390   1.60976
    2315.00   4.364551     0.3103E+02  -0.64488   1.61221
    2325.00   4.366423     0.2598E+02  -0.72205   1.80514
    2335.00   4.368287     0.2852E+02  -0.68148   1.70371
    2345.00   4.370143     0.2604E+02  -0.72104   1.80259
    2355.00   4.371991     0.2414E+02  -0.75400   1.88501
    2365.00   4.373831     0.2626E+02  -0.71738   1.79346
    2375.00   4.375664     0.2441E+02  -0.74916   1.87289
    2385.00   4.377488     0.2272E+02  -0.78035   1.95086
    2395.00   4.379306     0.2434E+02  -0.75031   1.87577
    2405.00   4.381115     0.2324E+02  -0.77050   1.92625
    2415.00   4.382917     0.2138E+02  -0.80657   2.01642
    2425.00   4.384712     0.2270E+02  -0.78059   1.95148
    2435.00   4.386499     0.2151E+02  -0.80397   2.00993
    2445.00   4.388279     0.2162E+02  -0.80184   2.00459
    2455.00   4.390052     0.2077E+02  -0.81921   2.04803
    2465.00   4.391817     0.2063E+02  -0.82209   2.05523
    2475.00   4.393575     0.2004E+02  -0.83481   2.08703
    2485.00   4.395327     0.1734E+02  -0.89769   2.24422
    2495.00   4.397071     0.1645E+02  -0.92048   2.30119
    2505.00   4.398808     0.1671E+02  -0.91365   2.28412
    2515.00   4.400538     0.1599E+02  -0.93276   2.33189
    2525.00   4.402262     0.1638E+02  -0.92232   2.30579
    2535.00   4.403978     0.1644E+02  -0.92083   2.30209
    2545.00   4.405688     0.1630E+02  -0.92454   2.31135
    2555.00   4.407391     0.1632E+02  -0.92389   2.30972
    2565.00   4.409087     0.1650E+02  -0.91928   2.29819
    2575.00   4.410777     0.1667E+02  -0.91467   2.28668
    2585.00   4.412460     0.1635E+02  -0.92325   2.30814
    2595.00   4.414137     0.1642E+02  -0.92137   2.30343
    2605.00   4.415808     0.1643E+02  -0.92108   2.30271
    2615.00   4.417472     0.1620E+02  -0.92725   2.31811
    2625.00   4.419129     0.1598E+02  -0.93303   2.33257
    2635.00   4.420781     0.1598E+02  -0.93299   2.33247
    2645.00   4.422426     0.1586E+02  -0.93646   2.34116
    2655.00   4.424065     0.1568E+02  -0.94133   2.35332
    2665.00   4.425697     0.1546E+02  -0.94749   2.36872
    2675.00   4.427324     0.1558E+02  -0.94400   2.35999
    2685.00   4.428945     0.1543E+02  -0.94827   2.37068
    2695.00   4.430559     0.1518E+02  -0.95536   2.38841
    2705.00   4.432167     0.1516E+02  -0.95591   2.38978
    2715.00   4.433770     0.1504E+02  -0.95952   2.39881
    2725.00   4.435367     0.1495E+02  -0.96204   2.40511
    2735.00   4.436957     0.1473E+02  -0.96850   2.42124
    2745.00   4.438542     0.1469E+02  -0.96959   2.42397
    2755.00   4.440122     0.1460E+02  -0.97222   2.43056
    2765.00   4.441695     0.1443E+02  -0.97727   2.44318
    2775.00   4.443263     0.1426E+02  -0.98243   2.45607
    2785.00   4.444825     0.1421E+02  -0.98418   2.46046
    2795.00   4.446382     0.1414E+02  -0.98619   2.46547
    2805.00   4.447933     0.1400E+02  -0.99044   2.47611
    2815.00   4.449478     0.1384E+02  -0.99557   2.48893
    2825.00   4.451018     0.1374E+02  -0.99860   2.49649
    2835.00   4.452553     0.1366E+02  -1.00119   2.50297
    2845.00   4.454082     0.1351E+02  -1.00591   2.51477
    2855.00   4.455606     0.1339E+02  -1.00992   2.52481
    2865.00   4.457125     0.1327E+02  -1.01366   2.53415
    2875.00   4.458638     0.1316E+02  -1.01751   2.54379
    2885.00   4.460146     0.1305E+02  -1.02119   2.55297
    2895.00   4.461648     0.1293E+02  -1.02500   2.56249
    2905.00   4.463146     0.1281E+02  -1.02918   2.57295
    2915.00   4.464639     0.1271E+02  -1.03269   2.58173
    2925.00   4.466126     0.1253E+02  -1.03881   2.59703
    2935.00   4.467608     0.1248E+02  -1.04048   2.60121
    2945.00   4.469085     0.1234E+02  -1.04519   2.61297
    2955.00   4.470557     0.1224E+02  -1.04890   2.62225
    2965.00   4.472025     0.1215E+02  -1.05212   2.63030
    2975.00   4.473487     0.1204E+02  -1.05600   2.64000
    2985.00   4.474944     0.1192E+02  -1.06053   2.65132
    2995.00   4.476397     0.1180E+02  -1.06474   2.66184
    3005.00   4.477844     0.1171E+02  -1.06824   2.67061
    3015.00   4.479287     0.1164E+02  -1.07068   2.67669
    3025.00   4.480725     0.1154E+02  -1.07457   2.68643
    3035.00   4.482159     0.1143E+02  -1.07845   2.69613
    3045.00   4.483587     0.1138E+02  -1.08044   2.70109
    3055.00   4.485011     0.1129E+02  -1.08406   2.71014
    3065.00   4.486430     0.1120E+02  -1.08744   2.71861
    3075.00   4.487845     0.1113E+02  -1.09005   2.72512
    3085.00   4.489255     0.1102E+02  -1.09434   2.73586
    3095.00   4.490661     0.1096E+02  -1.09702   2.74256
    3105.00   4.492062     0.1089E+02  -1.09963   2.74906
    3115.00   4.493458     0.1076E+02  -1.10496   2.76239
    3125.00   4.494850     0.1070E+02  -1.10712   2.76780
    3135.00   4.496238     0.1062E+02  -1.11057   2.77642
    3145.00   4.497621     0.1053E+02  -1.11426   2.78566
    3155.00   4.499000     0.1043E+02  -1.11841   2.79602
    3165.00   4.500374     0.1033E+02  -1.12239   2.80598
    3175.00   4.501744     0.1026E+02  -1.12532   2.81330
    3185.00   4.503109     0.1018E+02  -1.12902   2.82256
    3195.00   4.504471     0.1010E+02  -1.13230   2.83076
    3210.00   4.506505     0.9963E+01  -1.13828   2.84570
    3230.00   4.509202     0.9784E+01  -1.14617   2.86544
    3250.00   4.511883     0.9612E+01  -1.15388   2.88471
    3270.00   4.514548     0.9431E+01  -1.16210   2.90525
    3290.00   4.517196     0.9244E+01  -1.17080   2.92700
    3310.00   4.519828     0.9082E+01  -1.17851   2.94627
    3330.00   4.522444     0.8902E+01  -1.18717   2.96792
    3350.00   4.525045     0.8746E+01  -1.19486   2.98715
    3370.00   4.527630     0.8572E+01  -1.20358   3.00895
    3390.00   4.530200     0.8396E+01  -1.21259   3.03147
    3410.00   4.532754     0.8223E+01  -1.22163   3.05407
    3430.00   4.535294     0.8077E+01  -1.22940   3.07351
    3450.00   4.537819     0.7921E+01  -1.23791   3.09477
    3470.00   4.540329     0.7760E+01  -1.24683   3.11708
    3490.00   4.542826     0.7608E+01  -1.25540   3.13851
    3510.00   4.545307     0.7462E+01  -1.26383   3.15958
    3530.00   4.547775     0.7304E+01  -1.27310   3.18275
    3550.00   4.550228     0.7167E+01  -1.28131   3.20328
    3570.00   4.552669     0.7024E+01  -1.29009   3.22522
    3590.00   4.555095     0.6889E+01  -1.29854   3.24636
    3610.00   4.557508     0.6763E+01  -1.30655   3.26637
    3630.00   4.559907     0.6628E+01  -1.31526   3.28816
    3650.00   4.562293     0.6489E+01  -1.32447   3.31119
    3670.00   4.564666     0.6360E+01  -1.33322   3.33306
    3690.00   4.567026     0.6222E+01  -1.34276   3.35689
    3710.00   4.569374     0.6096E+01  -1.35163   3.37908
    3730.00   4.571709     0.5994E+01  -1.35899   3.39746
    3750.00   4.574031     0.5859E+01  -1.36887   3.42218
    3770.00   4.576342     0.5765E+01  -1.37585   3.43963
    3790.00   4.578639     0.5651E+01  -1.38453   3.46133
    3810.00   4.580925     0.5547E+01  -1.39260   3.48149
    3830.00   4.583199     0.5448E+01  -1.40045   3.50112
    3850.00   4.585461     0.5346E+01  -1.40864   3.52160
    3870.00   4.587711     0.5232E+01  -1.41800   3.54501
    3890.00   4.589950     0.5138E+01  -1.42585   3.56463
    3910.00   4.592176     0.5045E+01  -1.43377   3.58443
    3930.00   4.594393     0.4950E+01  -1.44203   3.60506
    3950.00   4.596597     0.4845E+01  -1.45137   3.62842
    3970.00   4.598790     0.4759E+01  -1.45915   3.64788
    3990.00   4.600973     0.4656E+01  -1.46867   3.67167
    4010.00   4.603145     0.4579E+01  -1.47588   3.68971
    4030.00   4.605305     0.4502E+01  -1.48330   3.70825
    4050.00   4.607455     0.4412E+01  -1.49208   3.73020
    4070.00   4.609594     0.4335E+01  -1.49971   3.74928
    4090.00   4.611723     0.4256E+01  -1.50762   3.76906
    4110.00   4.613842     0.4184E+01  -1.51507   3.78767
    4130.00   4.615950     0.4115E+01  -1.52226   3.80565
    4150.00   4.618048     0.4042E+01  -1.53010   3.82525
    4170.00   4.620136     0.3973E+01  -1.53754   3.84385
    4190.00   4.622214     0.3902E+01  -1.54535   3.86337
    4210.00   4.624282     0.3832E+01  -1.55326   3.88315
    4230.00   4.626340     0.3780E+01  -1.55916   3.89791
    4250.00   4.628389     0.3711E+01  -1.56723   3.91808
    4270.00   4.630428     0.3654E+01  -1.57392   3.93480
    4290.00   4.632457     0.3506E+01  -1.59183   3.97957
    4310.00   4.634478     0.3355E+01  -1.61099   4.02748
    4330.00   4.636488     0.3336E+01  -1.61350   4.03375
    4350.00   4.638489     0.3211E+01  -1.63005   4.07513
    4370.00   4.640481     0.3131E+01  -1.64095   4.10237
    4390.00   4.642465     0.3070E+01  -1.64960   4.12400
    4410.00   4.644439     0.2967E+01  -1.66437   4.16091
    4430.00   4.646404     0.2922E+01  -1.67102   4.17754
    4450.00   4.648360     0.2871E+01  -1.67863   4.19657
    4470.00   4.650308     0.2785E+01  -1.69180   4.22949
    4490.00   4.652246     0.2771E+01  -1.69407   4.23518
    4510.00   4.654177     0.2708E+01  -1.70403   4.26007
    4530.00   4.656098     0.2646E+01  -1.71409   4.28522
    4550.00   4.658011     0.2626E+01  -1.71746   4.29365
    4570.00   4.659916     0.2592E+01  -1.72307   4.30768
    4590.00   4.661813     0.2522E+01  -1.73499   4.33748
    4610.00   4.663701     0.2514E+01  -1.73635   4.34088
    4630.00   4.665581     0.2468E+01  -1.74430   4.36076
    4650.00   4.667453     0.2440E+01  -1.74923   4.37307
    4670.00   4.669317     0.2419E+01  -1.75297   4.38242
    4690.00   4.671173     0.2376E+01  -1.76082   4.40206
    4710.00   4.673021     0.2337E+01  -1.76797   4.41993
    4730.00   4.674861     0.2330E+01  -1.76940   4.42350
    4750.00   4.676694     0.2282E+01  -1.77830   4.44575
    4770.00   4.678518     0.2252E+01  -1.78415   4.46038
    4790.00   4.680336     0.2228E+01  -1.78881   4.47204
    4810.00   4.682145     0.2179E+01  -1.79837   4.49592
    4830.00   4.683947     0.2175E+01  -1.79924   4.49810
    4850.00   4.685741     0.2137E+01  -1.80678   4.51694
    4870.00   4.687529     0.2099E+01  -1.81464   4.53660
    4890.00   4.689309     0.2070E+01  -1.82061   4.55154
    4910.00   4.691082     0.2045E+01  -1.82608   4.56520
    4930.00   4.692847     0.2013E+01  -1.83276   4.58191
    4950.00   4.694605     0.1981E+01  -1.83975   4.59938
    4970.00   4.696356     0.1963E+01  -1.84369   4.60923
    4990.00   4.698101     0.1934E+01  -1.85013   4.62533
    5010.00   4.699838     0.1911E+01  -1.85550   4.63875
    5030.00   4.701568     0.1885E+01  -1.86128   4.65319
    5050.00   4.703291     0.1850E+01  -1.86961   4.67403
    5070.00   4.705008     0.1832E+01  -1.87372   4.68431
    5090.00   4.706717     0.1809E+01  -1.87933   4.69834
    5110.00   4.708421     0.1778E+01  -1.88662   4.71656
    5130.00   4.710117     0.1764E+01  -1.89024   4.72560
    5150.00   4.711807     0.1734E+01  -1.89755   4.74387
    5170.00   4.713490     0.1722E+01  -1.90056   4.75140
    5190.00   4.715167     0.1693E+01  -1.90795   4.76989
    5210.00   4.716838     0.1674E+01  -1.91286   4.78214
    5230.00   4.718502     0.1647E+01  -1.91993   4.79982
    5250.00   4.720160     0.1632E+01  -1.92401   4.81004
    5270.00   4.721810     0.1620E+01  -1.92725   4.81814
    5290.00   4.723455     0.1587E+01  -1.93603   4.84007
    5310.00   4.725095     0.1567E+01  -1.94158   4.85396
    5330.00   4.726727     0.1551E+01  -1.94592   4.86481
    5350.00   4.728354     0.1533E+01  -1.95124   4.87811
    5370.00   4.729974     0.1515E+01  -1.95628   4.89070
    5390.00   4.731589     0.1497E+01  -1.96142   4.90354
    5410.00   4.733197     0.1479E+01  -1.96671   4.91679
    5430.00   4.734800     0.1454E+01  -1.97404   4.93509
    5450.00   4.736397     0.1444E+01  -1.97709   4.94274
    5470.00   4.737988     0.1422E+01  -1.98378   4.95944
    5490.00   4.739573     0.1406E+01  -1.98861   4.97154
    5510.00   4.741152     0.1388E+01  -1.99430   4.98575
    5530.00   4.742725     0.1384E+01  -1.99546   4.98865
    5550.00   4.744293     0.1354E+01  -2.00522   5.01304
    5570.00   4.745855     0.1346E+01  -2.00750   5.01875
    5590.00   4.747412     0.1326E+01  -2.01429   5.03573
    5610.00   4.748963     0.1313E+01  -2.01827   5.04566
    5630.00   4.750508     0.1292E+01  -2.02542   5.06354
    5650.00   4.752048     0.1283E+01  -2.02860   5.07149
    5670.00   4.753583     0.1267E+01  -2.03389   5.08473
    5690.00   4.755112     0.1247E+01  -2.04093   5.10233
    5710.00   4.756636     0.1238E+01  -2.04380   5.10950
    5730.00   4.758155     0.1223E+01  -2.04929   5.12322
    5750.00   4.759668     0.1208E+01  -2.05448   5.13619
    5770.00   4.761176     0.1193E+01  -2.06014   5.15035
    5790.00   4.762679     0.1182E+01  -2.06390   5.15975
    5810.00   4.764176     0.1165E+01  -2.07026   5.17565
    5830.00   4.765669     0.1152E+01  -2.07506   5.18765
    5850.00   4.767156     0.1139E+01  -2.08001   5.20002
    5870.00   4.768638     0.1123E+01  -2.08632   5.21581
    5890.00   4.770115     0.1111E+01  -2.09110   5.22774
    5910.00   4.771587     0.1099E+01  -2.09583   5.23957
    5930.00   4.773055     0.1087E+01  -2.10063   5.25159
    5950.00   4.774517     0.1072E+01  -2.10647   5.26619
    5970.00   4.775974     0.1062E+01  -2.11061   5.27651
    5990.00   4.777427     0.1049E+01  -2.11573   5.28932
    6010.00   4.778874     0.1037E+01  -2.12082   5.30204
    6030.00   4.780317     0.1025E+01  -2.12596   5.31489
    6050.00   4.781755     0.1011E+01  -2.13188   5.32971
    6070.00   4.783189     0.9997E+00  -2.13680   5.34199
    6090.00   4.784617     0.9880E+00  -2.14191   5.35479
    6110.00   4.786041     0.9756E+00  -2.14738   5.36845
    6130.00   4.787460     0.9658E+00  -2.15179   5.37948
    6150.00   4.788875     0.9553E+00  -2.15655   5.39138
    6170.00   4.790285     0.9453E+00  -2.16109   5.40273
    6190.00   4.791691     0.9342E+00  -2.16624   5.41559
    6210.00   4.793092     0.9242E+00  -2.17092   5.42730
    6230.00   4.794488     0.9123E+00  -2.17653   5.44133
    6250.00   4.795880     0.9008E+00  -2.18206   5.45514
    6270.00   4.797267     0.8905E+00  -2.18703   5.46757
    6290.00   4.798651     0.8811E+00  -2.19167   5.47918
    6310.00   4.800029     0.8706E+00  -2.19687   5.49217
    6330.00   4.801404     0.8624E+00  -2.20097   5.50244
    6350.00   4.802773     0.8517E+00  -2.20639   5.51598
    6370.00   4.804139     0.8435E+00  -2.21057   5.52642
    6390.00   4.805501     0.8328E+00  -2.21611   5.54028
    6420.00   4.807535     0.8191E+00  -2.22335   5.55839
    6460.00   4.810232     0.8003E+00  -2.23341   5.58353
    6500.00   4.812913     0.7827E+00  -2.24308   5.60771
    6540.00   4.815578     0.7653E+00  -2.25283   5.63207
    6580.00   4.818226     0.7489E+00  -2.26223   5.65557
    6620.00   4.820858     0.7322E+00  -2.27207   5.68018
    6660.00   4.823474     0.7163E+00  -2.28160   5.70400
    6700.00   4.826075     0.7008E+00  -2.29108   5.72769
    6740.00   4.828660     0.6853E+00  -2.30079   5.75199
    6780.00   4.831230     0.6706E+00  -2.31021   5.77553
    6820.00   4.833784     0.6561E+00  -2.31971   5.79928
    6860.00   4.836324     0.6423E+00  -2.32894   5.82235
    6900.00   4.838849     0.6284E+00  -2.33841   5.84602
    6940.00   4.841359     0.6152E+00  -2.34769   5.86923
    6980.00   4.843855     0.6022E+00  -2.35692   5.89230
    7020.00   4.846337     0.5893E+00  -2.36631   5.91578
    7060.00   4.848804     0.5772E+00  -2.37534   5.93835
    7100.00   4.851258     0.5651E+00  -2.38452   5.96129
    7140.00   4.853698     0.5535E+00  -2.39356   5.98390
    7180.00   4.856124     0.5420E+00  -2.40268   6.00671
    7220.00   4.858537     0.5309E+00  -2.41166   6.02915
    7260.00   4.860937     0.5200E+00  -2.42070   6.05174
    7300.00   4.863323     0.5094E+00  -2.42958   6.07396
    7340.00   4.865696     0.4990E+00  -2.43857   6.09643
    7380.00   4.868056     0.4890E+00  -2.44733   6.11833
    7420.00   4.870404     0.4789E+00  -2.45640   6.14100
    7460.00   4.872739     0.4693E+00  -2.46520   6.16299
    7500.00   4.875061     0.4601E+00  -2.47383   6.18457
    7540.00   4.877371     0.4509E+00  -2.48261   6.20652
    7580.00   4.879669     0.4423E+00  -2.49098   6.22745
    7620.00   4.881955     0.4336E+00  -2.49959   6.24897
    7660.00   4.884229     0.4251E+00  -2.50814   6.27036
    7700.00   4.886491     0.4168E+00  -2.51673   6.29184
    7740.00   4.888741     0.4088E+00  -2.52516   6.31289
    7780.00   4.890980     0.4010E+00  -2.53357   6.33393
    7820.00   4.893207     0.3933E+00  -2.54200   6.35499
    7860.00   4.895422     0.3858E+00  -2.55034   6.37586
    7900.00   4.897627     0.3784E+00  -2.55868   6.39669
    7940.00   4.899820     0.3713E+00  -2.56696   6.41740
    7980.00   4.902003     0.3643E+00  -2.57518   6.43796
    8020.00   4.904174     0.3574E+00  -2.58353   6.45882
    8060.00   4.906335     0.3507E+00  -2.59169   6.47923
    8100.00   4.908485     0.3443E+00  -2.59973   6.49933
    8140.00   4.910625     0.3379E+00  -2.60790   6.51975
    8180.00   4.912753     0.3317E+00  -2.61586   6.53966
    8220.00   4.914872     0.3257E+00  -2.62386   6.55966
    8260.00   4.916980     0.3197E+00  -2.63187   6.57969
    8300.00   4.919078     0.3139E+00  -2.63982   6.59954
    8340.00   4.921166     0.3082E+00  -2.64784   6.61960
    8380.00   4.923244     0.3027E+00  -2.65573   6.63932
    8420.00   4.925312     0.2973E+00  -2.66345   6.65864
    8460.00   4.927370     0.2920E+00  -2.67131   6.67826
    8500.00   4.929419     0.2868E+00  -2.67906   6.69765
    8540.00   4.931458     0.2818E+00  -2.68678   6.71694
    8580.00   4.933487     0.2768E+00  -2.69445   6.73613
    8620.00   4.935507     0.2720E+00  -2.70211   6.75528
    8660.00   4.937518     0.2673E+00  -2.70971   6.77428
    8700.00   4.939519     0.2626E+00  -2.71733   6.79332
    8740.00   4.941511     0.2581E+00  -2.72490   6.81225
    8780.00   4.943495     0.2536E+00  -2.73245   6.83112
    8820.00   4.945469     0.2493E+00  -2.74002   6.85005
    8860.00   4.947433     0.2450E+00  -2.74747   6.86868
    8900.00   4.949390     0.2408E+00  -2.75495   6.88737
    8940.00   4.951338     0.2368E+00  -2.76228   6.90571
    8980.00   4.953277     0.2327E+00  -2.76980   6.92450
    9020.00   4.955207     0.2289E+00  -2.77701   6.94252
    9060.00   4.957129     0.2251E+00  -2.78428   6.96070
    9100.00   4.959042     0.2212E+00  -2.79180   6.97950
    9140.00   4.960946     0.2177E+00  -2.79891   6.99726
    9180.00   4.962843     0.2141E+00  -2.80613   7.01531
    9220.00   4.964731     0.2106E+00  -2.81322   7.03305
    9260.00   4.966611     0.2071E+00  -2.82041   7.05102
    9300.00   4.968483     0.2038E+00  -2.82753   7.06883
    9340.00   4.970347     0.2005E+00  -2.83465   7.08664
    9380.00   4.972203     0.1972E+00  -2.84171   7.10427
    9420.00   4.974051     0.1940E+00  -2.84876   7.12190
    9460.00   4.975891     0.1909E+00  -2.85582   7.13954
    9500.00   4.977724     0.1879E+00  -2.86280   7.15701
    9540.00   4.979548     0.1849E+00  -2.86976   7.17439
    9580.00   4.981365     0.1820E+00  -2.87668   7.19169
    9620.00   4.983175     0.1791E+00  -2.88360   7.20900
    9660.00   4.984977     0.1763E+00  -2.89046   7.22615
    9700.00   4.986772     0.1735E+00  -2.89731   7.24327
    9740.00   4.988559     0.1707E+00  -2.90435   7.26087
    9780.00   4.990339     0.1681E+00  -2.91101   7.27752
    9820.00   4.992111     0.1656E+00  -2.91772   7.29431
    9860.00   4.993877     0.1630E+00  -2.92447   7.31118
    9900.00   4.995635     0.1605E+00  -2.93118   7.32794
    9940.00   4.997386     0.1580E+00  -2.93791   7.34478
    9980.00   4.999130     0.1556E+00  -2.94457   7.36143
   10020.00   5.000868     0.1533E+00  -2.95121   7.37803
   20000.00   5.301030     0.1051E-01  -4.11513  10.28782
   40000.00   5.602060     0.6827E-03  -5.30248  13.25619
   60000.00   5.778151     0.1363E-03  -6.00218  15.00546
   80000.00   5.903090     0.4331E-04  -6.50011  16.25028
  100000.00   6.000000     0.1777E-04  -6.88697  17.21742
  120000.00   6.079181     0.8576E-05  -7.20339  18.00848
  140000.00   6.146128     0.4630E-05  -7.47113  18.67783
  160000.00   6.204120     0.2713E-05  -7.70317  19.25792
