age =   10.0    [Fe/H] =    0.25

wavele(nm) log wave(A)   Hlam       log(Hlam/Hlam(V))  Hlam(mag(V)) 
      90.50   2.956649     0.7017E-14 -16.31942  40.79856
      91.50   2.961421     0.2456E-12 -14.77529  36.93823
      92.50   2.966142     0.2977E-11 -13.69175  34.22939
      93.50   2.970812     0.4219E-11 -13.54043  33.85108
      94.50   2.975432     0.6352E-11 -13.36268  33.40669
      95.50   2.980003     0.9684E-11 -13.17955  32.94887
      96.50   2.984527     0.1475E-10 -12.99673  32.49181
      97.50   2.989005     0.2023E-10 -12.85958  32.14894
      98.50   2.993436     0.2888E-10 -12.70500  31.76250
      99.50   2.997823     0.3997E-10 -12.56391  31.40978
     100.50   3.002166     0.6072E-10 -12.38223  30.95559
     101.50   3.006466     0.8492E-10 -12.23661  30.59152
     102.50   3.010724     0.1018E-09 -12.15777  30.39444
     103.50   3.014940     0.1663E-09 -11.94471  29.86176
     104.50   3.019116     0.2334E-09 -11.79744  29.49360
     105.50   3.023252     0.3004E-09 -11.68791  29.21977
     106.50   3.027350     0.4163E-09 -11.54619  28.86548
     107.50   3.031409     0.5695E-09 -11.41007  28.52518
     108.50   3.035430     0.7710E-09 -11.27853  28.19633
     109.50   3.039414     0.9687E-09 -11.17939  27.94848
     110.50   3.043362     0.1926E-08 -10.88083  27.20208
     111.50   3.047275     0.2812E-08 -10.71663  26.79158
     112.50   3.051152     0.3977E-08 -10.56604  26.41511
     113.50   3.054996     0.5763E-08 -10.40495  26.01237
     114.50   3.058805     0.7724E-08 -10.27777  25.69444
     115.50   3.062582     0.9515E-08 -10.18719  25.46798
     116.50   3.066326     0.1288E-07 -10.05579  25.13947
     117.50   3.070038     0.1678E-07  -9.94074  24.85184
     118.50   3.073718     0.1991E-07  -9.86662  24.66655
     119.50   3.077368     0.2074E-07  -9.84885  24.62213
     120.50   3.080987     0.2527E-07  -9.76300  24.40751
     121.50   3.084576     0.1261E-07 -10.06495  25.16236
     122.50   3.088136     0.3700E-07  -9.59735  23.99336
     123.50   3.091667     0.5676E-07  -9.41155  23.52887
     124.50   3.095169     0.7180E-07  -9.30945  23.27364
     125.50   3.098644     0.8577E-07  -9.23226  23.08064
     126.50   3.102091     0.9882E-07  -9.17075  22.92687
     127.50   3.105510     0.1202E-06  -9.08567  22.71418
     128.50   3.108903     0.1358E-06  -9.03281  22.58202
     129.50   3.112270     0.1660E-06  -8.94555  22.36386
     130.50   3.115611     0.1844E-06  -8.89974  22.24934
     131.50   3.118926     0.2305E-06  -8.80284  22.00710
     132.50   3.122216     0.2487E-06  -8.76988  21.92471
     133.50   3.125481     0.2844E-06  -8.71173  21.77933
     134.50   3.128722     0.3443E-06  -8.62869  21.57173
     135.50   3.131939     0.4156E-06  -8.54695  21.36738
     136.50   3.135133     0.4600E-06  -8.50285  21.25713
     137.50   3.138303     0.5176E-06  -8.45158  21.12896
     138.50   3.141450     0.5854E-06  -8.39816  20.99539
     139.50   3.144574     0.6764E-06  -8.33542  20.83855
     140.50   3.147676     0.8353E-06  -8.24378  20.60944
     141.50   3.150756     0.9757E-06  -8.17629  20.44072
     142.50   3.153815     0.1152E-05  -8.10433  20.26083
     143.50   3.156852     0.1391E-05  -8.02213  20.05531
     144.20   3.158965     0.1741E-05  -7.92489  19.81223
     144.70   3.160469     0.1651E-05  -7.94780  19.86951
     145.50   3.162863     0.1939E-05  -7.87804  19.69511
     146.50   3.165838     0.2475E-05  -7.77208  19.43019
     147.50   3.168792     0.2870E-05  -7.70775  19.26937
     148.50   3.171726     0.3177E-05  -7.66355  19.15888
     149.50   3.174641     0.4084E-05  -7.55451  18.88627
     150.50   3.177536     0.5000E-05  -7.46666  18.66664
     151.20   3.179552     0.4191E-05  -7.54325  18.85812
     151.70   3.180986     0.5148E-05  -7.45394  18.63486
     152.50   3.183270     0.1194E-04  -7.08878  17.72194
     153.50   3.186108     0.2025E-04  -6.85911  17.14778
     154.50   3.188928     0.1689E-04  -6.93801  17.34503
     155.50   3.191730     0.2870E-04  -6.70778  16.76945
     156.50   3.194514     0.2756E-04  -6.72539  16.81347
     157.50   3.197281     0.5919E-04  -6.39335  15.98337
     158.50   3.200029     0.7235E-04  -6.30615  15.76536
     159.50   3.202761     0.8558E-04  -6.23321  15.58302
     160.50   3.205475     0.9102E-04  -6.20645  15.51613
     161.50   3.208173     0.9942E-04  -6.16813  15.42033
     162.50   3.210853     0.1132E-03  -6.11162  15.27906
     163.50   3.213518     0.1398E-03  -6.02015  15.05037
     164.50   3.216166     0.2026E-03  -5.85898  14.64744
     165.50   3.218798     0.1382E-03  -6.02522  15.06305
     166.50   3.221414     0.2431E-03  -5.77988  14.44971
     167.20   3.223236     0.1688E-03  -5.93825  14.84564
     167.70   3.224533     0.7160E-03  -5.31071  13.27678
     168.50   3.226600     0.8021E-03  -5.26138  13.15345
     169.50   3.229170     0.1030E-02  -5.15272  12.88180
     170.50   3.231725     0.1102E-02  -5.12357  12.80894
     171.50   3.234264     0.1048E-02  -5.14529  12.86321
     172.50   3.236789     0.1414E-02  -5.01520  12.53800
     173.50   3.239300     0.1708E-02  -4.93322  12.33306
     174.50   3.241796     0.2417E-02  -4.78224  11.95561
     175.50   3.244277     0.3254E-02  -4.65317  11.63292
     176.50   3.246745     0.3127E-02  -4.67053  11.67633
     177.50   3.249198     0.3320E-02  -4.64443  11.61109
     178.50   3.251638     0.4544E-02  -4.50821  11.27052
     179.50   3.254065     0.5312E-02  -4.44033  11.10082
     180.50   3.256477     0.6042E-02  -4.38445  10.96112
     181.50   3.258877     0.5633E-02  -4.41485  11.03713
     182.50   3.261263     0.7472E-02  -4.29214  10.73035
     183.50   3.263636     0.7672E-02  -4.28070  10.70174
     184.50   3.265996     0.5970E-02  -4.38966  10.97414
     185.50   3.268344     0.8382E-02  -4.24224  10.60560
     186.50   3.270679     0.1002E-01  -4.16464  10.41160
     187.50   3.273001     0.1091E-01  -4.12776  10.31940
     188.50   3.275311     0.1185E-01  -4.09194  10.22985
     189.50   3.277609     0.1582E-01  -3.96638   9.91595
     190.50   3.279895     0.1541E-01  -3.97789   9.94472
     191.50   3.282169     0.1749E-01  -3.92273   9.80683
     192.50   3.284431     0.1775E-01  -3.91637   9.79093
     193.50   3.286681     0.1219E-01  -4.07943  10.19857
     194.50   3.288920     0.2320E-01  -3.80005   9.50013
     195.50   3.291147     0.2496E-01  -3.76837   9.42094
     196.70   3.293804     0.3230E-01  -3.65643   9.14108
     197.60   3.295787     0.3204E-01  -3.65986   9.14966
     198.40   3.297542     0.3672E-01  -3.60067   9.00167
     199.50   3.299943     0.3739E-01  -3.59284   8.98211
     200.50   3.302114     0.3713E-01  -3.59593   8.98982
     201.50   3.304275     0.4137E-01  -3.54895   8.87238
     202.50   3.306425     0.3398E-01  -3.63439   9.08599
     203.50   3.308564     0.4664E-01  -3.49679   8.74199
     204.50   3.310693     0.5374E-01  -3.43527   8.58818
     205.50   3.312812     0.5726E-01  -3.40774   8.51935
     206.50   3.314920     0.5754E-01  -3.40567   8.51417
     207.40   3.316809     0.6151E-01  -3.37667   8.44167
     207.80   3.317646     0.1395E+00  -3.02087   7.55218
     208.50   3.319106     0.1820E+00  -2.90546   7.26365
     209.50   3.321184     0.1734E+00  -2.92649   7.31622
     210.50   3.323252     0.1794E+00  -2.91186   7.27965
     211.50   3.325310     0.2113E+00  -2.84067   7.10167
     212.50   3.327359     0.1912E+00  -2.88403   7.21008
     213.50   3.329398     0.2052E+00  -2.85339   7.13348
     214.50   3.331427     0.2543E+00  -2.76031   6.90076
     215.50   3.333447     0.2378E+00  -2.78933   6.97334
     216.50   3.335458     0.2240E+00  -2.81527   7.03818
     217.50   3.337459     0.2233E+00  -2.81669   7.04171
     218.50   3.339452     0.2927E+00  -2.69912   6.74780
     219.50   3.341434     0.2962E+00  -2.69406   6.73515
     220.50   3.343409     0.3036E+00  -2.68327   6.70819
     221.50   3.345374     0.2437E+00  -2.77869   6.94672
     222.50   3.347330     0.3068E+00  -2.67876   6.69691
     223.50   3.349277     0.4302E+00  -2.53194   6.32984
     224.50   3.351216     0.4244E+00  -2.53787   6.34468
     225.50   3.353147     0.3461E+00  -2.62646   6.56614
     226.50   3.355068     0.2871E+00  -2.70763   6.76907
     227.50   3.356982     0.3279E+00  -2.64981   6.62453
     228.50   3.358886     0.4922E+00  -2.47349   6.18374
     229.50   3.360783     0.4068E+00  -2.55626   6.39065
     230.50   3.362671     0.4662E+00  -2.49705   6.24262
     231.50   3.364551     0.4386E+00  -2.52357   6.30891
     232.50   3.366423     0.4202E+00  -2.54212   6.35531
     233.50   3.368287     0.4222E+00  -2.54005   6.35014
     234.50   3.370143     0.2831E+00  -2.71364   6.78410
     235.50   3.371991     0.4811E+00  -2.48339   6.20847
     236.50   3.373831     0.3341E+00  -2.64171   6.60427
     237.50   3.375664     0.4172E+00  -2.54522   6.36306
     238.50   3.377488     0.2911E+00  -2.70158   6.75395
     239.50   3.379306     0.3579E+00  -2.61182   6.52954
     240.50   3.381115     0.3959E+00  -2.56797   6.41994
     241.50   3.382917     0.3859E+00  -2.57913   6.44782
     242.50   3.384712     0.6381E+00  -2.36073   5.90183
     243.50   3.386499     0.6893E+00  -2.32717   5.81792
     244.50   3.388279     0.8491E+00  -2.23664   5.59159
     245.50   3.390052     0.9271E+00  -2.19845   5.49613
     246.50   3.391817     0.7259E+00  -2.30471   5.76178
     247.50   3.393575     0.6566E+00  -2.34827   5.87068
     248.50   3.395326     0.2831E+00  -2.71373   6.78432
     249.50   3.397071     0.4341E+00  -2.52796   6.31991
     250.50   3.398808     0.7386E+00  -2.29720   5.74300
     251.30   3.400192     0.3524E+00  -2.61852   6.54631
     251.80   3.401056     0.2465E+00  -2.77384   6.93461
     252.50   3.402261     0.2868E+00  -2.70799   6.76998
     253.50   3.403978     0.6466E+00  -2.35497   5.88743
     254.50   3.405688     0.6866E+00  -2.32888   5.82219
     255.50   3.407391     0.1663E+01  -1.94482   4.86205
     256.50   3.409087     0.1137E+01  -2.10982   5.27455
     257.50   3.410777     0.1634E+01  -1.95231   4.88078
     258.50   3.412461     0.1467E+01  -1.99903   4.99757
     259.50   3.414137     0.1369E+01  -2.02935   5.07338
     260.50   3.415808     0.1244E+01  -2.07088   5.17720
     261.50   3.417472     0.1109E+01  -2.12050   5.30125
     262.50   3.419129     0.1578E+01  -1.96757   4.91893
     263.50   3.420781     0.3234E+01  -1.65583   4.13958
     264.50   3.422426     0.4173E+01  -1.54518   3.86294
     265.50   3.424065     0.7203E+01  -1.30810   3.27025
     266.50   3.425697     0.3781E+01  -1.58804   3.97010
     267.50   3.427324     0.4268E+01  -1.53534   3.83836
     268.50   3.428944     0.5493E+01  -1.42580   3.56451
     269.50   3.430559     0.3439E+01  -1.62914   4.07286
     270.50   3.432167     0.4874E+01  -1.47772   3.69431
     271.50   3.433770     0.3224E+01  -1.65717   4.14292
     272.50   3.435366     0.1967E+01  -1.87178   4.67946
     273.50   3.436957     0.2873E+01  -1.70724   4.26810
     274.50   3.438542     0.1822E+01  -1.90511   4.76277
     275.50   3.440122     0.2592E+01  -1.75196   4.37990
     276.50   3.441695     0.3572E+01  -1.61265   4.03161
     277.50   3.443263     0.3805E+01  -1.58520   3.96301
     278.50   3.444825     0.2235E+01  -1.81642   4.54104
     279.50   3.446382     0.1016E+01  -2.15851   5.39628
     280.50   3.447933     0.1257E+01  -2.06641   5.16601
     281.50   3.449478     0.3389E+01  -1.63546   4.08866
     282.50   3.451018     0.4791E+01  -1.48522   3.71304
     283.50   3.452553     0.4132E+01  -1.54943   3.87356
     284.50   3.454082     0.2357E+01  -1.79332   4.48331
     285.50   3.455606     0.1123E+01  -2.11505   5.28763
     286.50   3.457125     0.3611E+01  -1.60802   4.02004
     287.50   3.458638     0.6569E+01  -1.34809   3.37021
     288.50   3.460146     0.6264E+01  -1.36874   3.42186
     289.50   3.461648     0.8950E+01  -1.21379   3.03447
     291.00   3.463893     0.1365E+02  -1.03040   2.57600
     293.00   3.466868     0.1215E+02  -1.08117   2.70292
     295.00   3.469822     0.1128E+02  -1.11320   2.78300
     297.00   3.472756     0.1189E+02  -1.09025   2.72562
     299.00   3.475671     0.1243E+02  -1.07127   2.67817
     301.00   3.478566     0.1193E+02  -1.08889   2.72224
     303.00   3.481443     0.1390E+02  -1.02244   2.55611
     305.00   3.484300     0.1428E+02  -1.01081   2.52702
     307.00   3.487138     0.1612E+02  -0.95836   2.39589
     309.00   3.489959     0.1457E+02  -1.00217   2.50543
     311.00   3.492760     0.1894E+02  -0.88820   2.22050
     313.00   3.495544     0.1669E+02  -0.94303   2.35758
     315.00   3.498311     0.1740E+02  -0.92512   2.31280
     317.00   3.501059     0.2017E+02  -0.86082   2.15204
     319.00   3.503791     0.1661E+02  -0.94523   2.36307
     321.00   3.506505     0.1846E+02  -0.89941   2.24853
     323.00   3.509202     0.1540E+02  -0.97817   2.44543
     325.00   3.511883     0.2382E+02  -0.78870   1.97176
     327.00   3.514548     0.2860E+02  -0.70930   1.77324
     329.00   3.517196     0.2825E+02  -0.71451   1.78627
     331.00   3.519828     0.2540E+02  -0.76072   1.90179
     333.00   3.522444     0.2682E+02  -0.73710   1.84274
     335.00   3.525045     0.2589E+02  -0.75243   1.88107
     337.00   3.527630     0.1786E+02  -0.91368   2.28420
     339.00   3.530200     0.2107E+02  -0.84203   2.10508
     341.00   3.532754     0.2193E+02  -0.82459   2.06148
     343.00   3.535294     0.2342E+02  -0.79598   1.98994
     345.00   3.537819     0.2612E+02  -0.74865   1.87162
     347.00   3.540329     0.2757E+02  -0.72521   1.81303
     349.00   3.542825     0.3195E+02  -0.66110   1.65275
     351.00   3.545307     0.3436E+02  -0.62950   1.57374
     353.00   3.547775     0.2951E+02  -0.69570   1.73926
     355.00   3.550228     0.3370E+02  -0.63798   1.59495
     357.00   3.552668     0.2199E+02  -0.82344   2.05859
     359.00   3.555094     0.2382E+02  -0.78865   1.97162
     361.00   3.557507     0.3209E+02  -0.65917   1.64793
     363.00   3.559907     0.3440E+02  -0.62906   1.57266
     364.00   3.561101     0.3497E+02  -0.62185   1.55463
     365.00   3.562293     0.3920E+02  -0.57229   1.43073
     367.00   3.564666     0.4352E+02  -0.52688   1.31719
     369.00   3.567026     0.3710E+02  -0.59622   1.49056
     371.00   3.569374     0.3834E+02  -0.58190   1.45474
     373.00   3.571709     0.2178E+02  -0.82749   2.06873
     375.00   3.574031     0.2552E+02  -0.75875   1.89688
     377.00   3.576341     0.3683E+02  -0.59944   1.49860
     379.00   3.578639     0.3778E+02  -0.58835   1.47088
     381.00   3.580925     0.3330E+02  -0.64321   1.60802
     383.00   3.583199     0.1664E+02  -0.94439   2.36097
     385.00   3.585461     0.2326E+02  -0.79903   1.99758
     387.00   3.587711     0.2340E+02  -0.79636   1.99089
     389.00   3.589950     0.3464E+02  -0.62604   1.56511
     391.00   3.592177     0.4420E+02  -0.52021   1.30052
     393.00   3.594393     0.1966E+02  -0.87205   2.18013
     395.00   3.596597     0.3685E+02  -0.59917   1.49791
     397.00   3.598790     0.2514E+02  -0.76517   1.91293
     399.00   3.600973     0.6239E+02  -0.37048   0.92620
     401.00   3.603144     0.7098E+02  -0.31447   0.78617
     403.00   3.605305     0.6959E+02  -0.32302   0.80756
     405.00   3.607455     0.6614E+02  -0.34510   0.86276
     407.00   3.609594     0.6076E+02  -0.38201   0.95503
     409.00   3.611723     0.8168E+02  -0.25349   0.63373
     411.00   3.613842     0.7621E+02  -0.28356   0.70890
     413.00   3.615950     0.7154E+02  -0.31108   0.77770
     415.00   3.618048     0.6944E+02  -0.32398   0.80996
     417.00   3.620136     0.7109E+02  -0.31378   0.78444
     419.00   3.622214     0.7042E+02  -0.31791   0.79477
     421.00   3.624282     0.7150E+02  -0.31126   0.77816
     423.00   3.626340     0.6425E+02  -0.35772   0.89431
     425.00   3.628389     0.7430E+02  -0.29464   0.73659
     427.00   3.630428     0.6938E+02  -0.32438   0.81095
     429.00   3.632457     0.6507E+02  -0.35221   0.88053
     431.00   3.634477     0.5726E+02  -0.40775   1.01936
     433.00   3.636488     0.8881E+02  -0.21713   0.54283
     435.00   3.638489     0.9105E+02  -0.20633   0.51581
     437.00   3.640481     0.9926E+02  -0.16883   0.42207
     439.00   3.642465     0.8448E+02  -0.23887   0.59717
     441.00   3.644439     0.8974E+02  -0.21261   0.53151
     443.00   3.646404     0.9782E+02  -0.17517   0.43792
     445.00   3.648360     0.1001E+03  -0.16521   0.41303
     447.00   3.650307     0.1095E+03  -0.12603   0.31509
     449.00   3.652246     0.1138E+03  -0.10935   0.27338
     451.00   3.654176     0.1349E+03  -0.03569   0.08922
     453.00   3.656098     0.1129E+03  -0.11272   0.28179
     455.00   3.658011     0.1206E+03  -0.08435   0.21086
     457.00   3.659916     0.1337E+03  -0.03958   0.09896
     459.00   3.661813     0.1246E+03  -0.07021   0.17553
     461.00   3.663701     0.1286E+03  -0.05638   0.14095
     463.00   3.665581     0.1239E+03  -0.07237   0.18092
     465.00   3.667453     0.1262E+03  -0.06465   0.16163
     467.00   3.669317     0.1343E+03  -0.03739   0.09347
     469.00   3.671173     0.1313E+03  -0.04727   0.11817
     471.00   3.673021     0.1270E+03  -0.06184   0.15459
     473.00   3.674861     0.1321E+03  -0.04485   0.11212
     475.00   3.676694     0.1361E+03  -0.03172   0.07930
     477.00   3.678518     0.1318E+03  -0.04556   0.11389
     479.00   3.680336     0.1340E+03  -0.03843   0.09606
     481.00   3.682145     0.1349E+03  -0.03547   0.08867
     483.00   3.683947     0.1417E+03  -0.01414   0.03536
     485.00   3.685742     0.1343E+03  -0.03745   0.09363
     487.00   3.687529     0.1231E+03  -0.07549   0.18871
     489.00   3.689309     0.1372E+03  -0.02825   0.07062
     491.00   3.691082     0.1381E+03  -0.02546   0.06365
     493.00   3.692847     0.1348E+03  -0.03576   0.08941
     495.00   3.694605     0.1407E+03  -0.01738   0.04345
     497.00   3.696356     0.1332E+03  -0.04101   0.10251
     499.00   3.698101     0.1225E+03  -0.07738   0.19345
     501.00   3.699838     0.1133E+03  -0.11128   0.27819
     503.00   3.701568     0.1233E+03  -0.07456   0.18641
     505.00   3.703291     0.1231E+03  -0.07526   0.18815
     507.00   3.705008     0.1293E+03  -0.05406   0.13515
     509.00   3.706718     0.1205E+03  -0.08444   0.21110
     511.00   3.708421     0.1250E+03  -0.06882   0.17204
     513.00   3.710117     0.1198E+03  -0.08722   0.21806
     515.00   3.711807     0.1150E+03  -0.10485   0.26212
     517.00   3.713490     0.9891E+02  -0.17034   0.42586
     519.00   3.715167     0.1049E+03  -0.14462   0.36155
     521.00   3.716838     0.1186E+03  -0.09156   0.22890
     523.00   3.718502     0.1354E+03  -0.03399   0.08498
     525.00   3.720159     0.1441E+03  -0.00706   0.01764
     527.00   3.721811     0.1222E+03  -0.07839   0.19597
     529.00   3.723456     0.1485E+03   0.00605  -0.01512
     531.00   3.725095     0.1613E+03   0.04199  -0.10498
     533.00   3.726727     0.1358E+03  -0.03269   0.08171
     535.00   3.728354     0.1542E+03   0.02246  -0.05615
     537.00   3.729974     0.1525E+03   0.01753  -0.04383
     539.00   3.731589     0.1481E+03   0.00494  -0.01235
     541.00   3.733197     0.1463E+03  -0.00024   0.00059
     543.00   3.734800     0.1492E+03   0.00808  -0.02020
     545.00   3.736397     0.1515E+03   0.01489  -0.03723
     547.00   3.737987     0.1475E+03   0.00318  -0.00794
     549.00   3.739572     0.1489E+03   0.00725  -0.01812
     551.00   3.741152     0.1464E+03   0.00000   0.00000
     553.00   3.742725     0.1549E+03   0.02449  -0.06123
     555.00   3.744293     0.1587E+03   0.03492  -0.08729
     557.00   3.745855     0.1553E+03   0.02567  -0.06417
     559.00   3.747412     0.1498E+03   0.00992  -0.02481
     561.00   3.748963     0.1558E+03   0.02700  -0.06750
     563.00   3.750508     0.1547E+03   0.02384  -0.05960
     565.00   3.752048     0.1589E+03   0.03542  -0.08855
     567.00   3.753583     0.1549E+03   0.02432  -0.06081
     569.00   3.755112     0.1619E+03   0.04366  -0.10915
     571.00   3.756636     0.1555E+03   0.02604  -0.06511
     573.00   3.758155     0.1728E+03   0.07182  -0.17955
     575.00   3.759668     0.1646E+03   0.05076  -0.12689
     577.00   3.761176     0.1670E+03   0.05716  -0.14289
     579.00   3.762679     0.1588E+03   0.03528  -0.08820
     581.00   3.764176     0.1677E+03   0.05888  -0.14720
     583.00   3.765669     0.1740E+03   0.07502  -0.18755
     585.00   3.767156     0.1657E+03   0.05380  -0.13451
     587.00   3.768638     0.1644E+03   0.05032  -0.12580
     589.00   3.770115     0.1350E+03  -0.03533   0.08832
     591.00   3.771587     0.1602E+03   0.03915  -0.09788
     593.00   3.773055     0.1634E+03   0.04771  -0.11928
     595.00   3.774517     0.1640E+03   0.04930  -0.12325
     597.00   3.775974     0.1685E+03   0.06098  -0.15246
     599.00   3.777427     0.1653E+03   0.05268  -0.13171
     601.00   3.778874     0.1634E+03   0.04764  -0.11910
     603.00   3.780317     0.1701E+03   0.06521  -0.16304
     605.00   3.781755     0.1743E+03   0.07581  -0.18952
     607.00   3.783189     0.1742E+03   0.07556  -0.18889
     609.00   3.784617     0.1667E+03   0.05622  -0.14055
     611.00   3.786041     0.1679E+03   0.05954  -0.14886
     613.00   3.787461     0.1566E+03   0.02927  -0.07317
     615.00   3.788875     0.1621E+03   0.04425  -0.11061
     617.00   3.790285     0.1479E+03   0.00432  -0.01081
     619.00   3.791691     0.1600E+03   0.03856  -0.09640
     621.00   3.793092     0.1574E+03   0.03139  -0.07846
     623.00   3.794488     0.1511E+03   0.01364  -0.03410
     625.00   3.795880     0.1465E+03   0.00021  -0.00054
     627.00   3.797267     0.1552E+03   0.02542  -0.06356
     629.00   3.798651     0.1607E+03   0.04050  -0.10124
     631.00   3.800029     0.1564E+03   0.02876  -0.07190
     633.00   3.801404     0.1598E+03   0.03806  -0.09514
     635.00   3.802774     0.1599E+03   0.03821  -0.09551
     637.00   3.804139     0.1598E+03   0.03789  -0.09472
     639.00   3.805501     0.1656E+03   0.05341  -0.13353
     641.00   3.806858     0.1620E+03   0.04395  -0.10987
     643.00   3.808211     0.1639E+03   0.04890  -0.12225
     645.00   3.809560     0.1630E+03   0.04660  -0.11649
     647.00   3.810904     0.1629E+03   0.04636  -0.11589
     649.00   3.812245     0.1598E+03   0.03809  -0.09522
     651.00   3.813581     0.1676E+03   0.05856  -0.14640
     653.00   3.814913     0.1679E+03   0.05938  -0.14845
     655.00   3.816241     0.1647E+03   0.05102  -0.12755
     657.00   3.817565     0.1583E+03   0.03391  -0.08478
     659.00   3.818885     0.1643E+03   0.05012  -0.12530
     661.00   3.820201     0.1657E+03   0.05384  -0.13459
     663.00   3.821513     0.1625E+03   0.04533  -0.11334
     665.00   3.822822     0.1614E+03   0.04222  -0.10554
     667.00   3.824126     0.1557E+03   0.02657  -0.06643
     669.00   3.825426     0.1565E+03   0.02905  -0.07262
     671.00   3.826723     0.1479E+03   0.00438  -0.01095
     673.00   3.828015     0.1525E+03   0.01761  -0.04404
     675.00   3.829304     0.1492E+03   0.00808  -0.02019
     677.00   3.830589     0.1502E+03   0.01097  -0.02744
     679.00   3.831870     0.1478E+03   0.00408  -0.01021
     681.00   3.833147     0.1499E+03   0.01007  -0.02519
     683.00   3.834421     0.1530E+03   0.01896  -0.04739
     685.00   3.835690     0.1488E+03   0.00696  -0.01740
     687.00   3.836957     0.1526E+03   0.01783  -0.04458
     689.00   3.838219     0.1567E+03   0.02953  -0.07381
     691.00   3.839478     0.1584E+03   0.03419  -0.08547
     693.00   3.840733     0.1577E+03   0.03224  -0.08061
     695.00   3.841985     0.1594E+03   0.03688  -0.09221
     697.00   3.843233     0.1639E+03   0.04908  -0.12269
     699.00   3.844477     0.1648E+03   0.05137  -0.12841
     701.00   3.845718     0.1646E+03   0.05093  -0.12734
     703.00   3.846955     0.1673E+03   0.05790  -0.14476
     705.00   3.848189     0.1645E+03   0.05056  -0.12640
     707.00   3.849419     0.1545E+03   0.02344  -0.05860
     709.00   3.850646     0.1441E+03  -0.00690   0.01724
     711.00   3.851870     0.1378E+03  -0.02648   0.06621
     713.00   3.853090     0.1333E+03  -0.04067   0.10167
     715.00   3.854306     0.1327E+03  -0.04280   0.10700
     717.00   3.855519     0.1356E+03  -0.03341   0.08353
     719.00   3.856729     0.1327E+03  -0.04270   0.10675
     721.00   3.857935     0.1377E+03  -0.02681   0.06702
     723.00   3.859138     0.1432E+03  -0.00981   0.02452
     725.00   3.860338     0.1460E+03  -0.00111   0.00278
     727.00   3.861534     0.1488E+03   0.00688  -0.01719
     729.00   3.862728     0.1494E+03   0.00887  -0.02218
     731.00   3.863917     0.1583E+03   0.03398  -0.08495
     733.00   3.865104     0.1591E+03   0.03601  -0.09003
     735.00   3.866287     0.1654E+03   0.05304  -0.13261
     737.00   3.867467     0.1732E+03   0.07293  -0.18234
     739.00   3.868644     0.1696E+03   0.06395  -0.15987
     741.00   3.869818     0.1745E+03   0.07620  -0.19050
     743.00   3.870989     0.1804E+03   0.09055  -0.22637
     745.00   3.872156     0.1790E+03   0.08722  -0.21806
     747.00   3.873321     0.1878E+03   0.10818  -0.27045
     749.00   3.874482     0.1873E+03   0.10691  -0.26728
     751.00   3.875640     0.1893E+03   0.11154  -0.27885
     753.00   3.876795     0.1956E+03   0.12575  -0.31438
     755.00   3.877947     0.1980E+03   0.13110  -0.32774
     757.00   3.879096     0.1991E+03   0.13357  -0.33393
     759.00   3.880242     0.1890E+03   0.11095  -0.27738
     761.00   3.881385     0.1800E+03   0.08964  -0.22411
     763.00   3.882524     0.1698E+03   0.06442  -0.16106
     765.00   3.883662     0.1592E+03   0.03637  -0.09093
     767.00   3.884795     0.1471E+03   0.00187  -0.00467
     769.00   3.885926     0.1505E+03   0.01189  -0.02972
     771.00   3.887054     0.1477E+03   0.00371  -0.00927
     773.00   3.888180     0.1477E+03   0.00369  -0.00923
     775.00   3.889302     0.1467E+03   0.00093  -0.00232
     777.00   3.890421     0.1495E+03   0.00901  -0.02253
     779.00   3.891537     0.1510E+03   0.01341  -0.03353
     781.00   3.892651     0.1514E+03   0.01441  -0.03603
     783.00   3.893762     0.1513E+03   0.01436  -0.03589
     785.00   3.894870     0.1488E+03   0.00701  -0.01752
     787.00   3.895975     0.1530E+03   0.01909  -0.04773
     789.00   3.897077     0.1523E+03   0.01705  -0.04262
     791.00   3.898176     0.1477E+03   0.00373  -0.00933
     793.00   3.899273     0.1500E+03   0.01042  -0.02605
     795.00   3.900367     0.1498E+03   0.00978  -0.02444
     797.00   3.901458     0.1554E+03   0.02577  -0.06443
     799.00   3.902547     0.1560E+03   0.02765  -0.06912
     801.00   3.903632     0.1611E+03   0.04162  -0.10404
     803.00   3.904716     0.1633E+03   0.04728  -0.11819
     805.00   3.905796     0.1634E+03   0.04771  -0.11927
     807.00   3.906873     0.1705E+03   0.06613  -0.16532
     809.00   3.907948     0.1705E+03   0.06611  -0.16527
     811.00   3.909021     0.1738E+03   0.07448  -0.18620
     813.00   3.910090     0.1831E+03   0.09717  -0.24293
     815.00   3.911158     0.1886E+03   0.10988  -0.27469
     817.00   3.912222     0.1917E+03   0.11708  -0.29271
     819.00   3.913284     0.1886E+03   0.10984  -0.27460
     821.00   3.914343     0.1762E+03   0.08044  -0.20109
     823.00   3.915400     0.1771E+03   0.08259  -0.20648
     825.00   3.916454     0.1760E+03   0.07980  -0.19949
     827.00   3.917506     0.1769E+03   0.08210  -0.20524
     829.00   3.918555     0.1741E+03   0.07517  -0.18792
     831.00   3.919601     0.1671E+03   0.05739  -0.14348
     833.00   3.920645     0.1654E+03   0.05297  -0.13243
     835.00   3.921686     0.1647E+03   0.05114  -0.12785
     837.00   3.922725     0.1664E+03   0.05547  -0.13867
     839.00   3.923762     0.1610E+03   0.04129  -0.10323
     841.00   3.924796     0.1667E+03   0.05631  -0.14077
     843.00   3.925828     0.1594E+03   0.03685  -0.09213
     845.00   3.926857     0.1482E+03   0.00512  -0.01281
     847.00   3.927883     0.1478E+03   0.00421  -0.01052
     849.00   3.928908     0.1501E+03   0.01075  -0.02687
     851.00   3.929929     0.1431E+03  -0.00991   0.02479
     853.00   3.930949     0.1486E+03   0.00638  -0.01595
     855.00   3.931966     0.1392E+03  -0.02189   0.05473
     857.00   3.932981     0.1571E+03   0.03050  -0.07624
     859.00   3.933993     0.1562E+03   0.02818  -0.07046
     861.00   3.935003     0.1606E+03   0.04002  -0.10004
     863.00   3.936011     0.1649E+03   0.05174  -0.12936
     865.00   3.937016     0.1657E+03   0.05370  -0.13426
     867.00   3.938019     0.1506E+03   0.01220  -0.03050
     869.00   3.939020     0.1654E+03   0.05287  -0.13217
     871.00   3.940018     0.1728E+03   0.07206  -0.18016
     873.00   3.941014     0.1754E+03   0.07844  -0.19609
     875.00   3.942008     0.1751E+03   0.07765  -0.19413
     877.00   3.943000     0.1776E+03   0.08391  -0.20978
     879.00   3.943989     0.1849E+03   0.10130  -0.25324
     881.00   3.944976     0.1829E+03   0.09663  -0.24156
     883.00   3.945961     0.1853E+03   0.10237  -0.25593
     885.00   3.946943     0.1800E+03   0.08964  -0.22409
     887.00   3.947924     0.1693E+03   0.06298  -0.15744
     889.00   3.948902     0.1688E+03   0.06169  -0.15422
     891.00   3.949878     0.1718E+03   0.06946  -0.17365
     893.00   3.950851     0.1695E+03   0.06360  -0.15901
     895.00   3.951823     0.1712E+03   0.06803  -0.17008
     897.00   3.952792     0.1720E+03   0.06989  -0.17473
     899.00   3.953760     0.1727E+03   0.07163  -0.17907
     901.00   3.954725     0.1701E+03   0.06521  -0.16302
     903.00   3.955688     0.1790E+03   0.08717  -0.21793
     905.00   3.956649     0.1870E+03   0.10618  -0.26544
     907.00   3.957607     0.1905E+03   0.11432  -0.28579
     909.00   3.958564     0.1903E+03   0.11383  -0.28458
     911.00   3.959518     0.1937E+03   0.12148  -0.30370
     913.00   3.960471     0.1970E+03   0.12894  -0.32234
     915.00   3.961421     0.1957E+03   0.12608  -0.31520
     917.00   3.962369     0.1961E+03   0.12682  -0.31705
     919.00   3.963315     0.1985E+03   0.13215  -0.33037
     921.00   3.964260     0.1866E+03   0.10523  -0.26306
     923.00   3.965202     0.1826E+03   0.09585  -0.23963
     925.00   3.966142     0.1790E+03   0.08723  -0.21806
     927.00   3.967080     0.1833E+03   0.09746  -0.24365
     929.00   3.968016     0.1756E+03   0.07897  -0.19741
     931.00   3.968950     0.1766E+03   0.08128  -0.20320
     933.00   3.969882     0.1792E+03   0.08779  -0.21947
     935.00   3.970812     0.1792E+03   0.08785  -0.21963
     937.00   3.971740     0.1742E+03   0.07534  -0.18836
     939.00   3.972666     0.1800E+03   0.08973  -0.22433
     941.00   3.973590     0.1789E+03   0.08711  -0.21778
     943.00   3.974512     0.1830E+03   0.09693  -0.24233
     945.00   3.975432     0.1819E+03   0.09432  -0.23580
     947.00   3.976350     0.1878E+03   0.10807  -0.27017
     949.00   3.977266     0.1893E+03   0.11157  -0.27893
     951.00   3.978180     0.1810E+03   0.09209  -0.23023
     953.00   3.979093     0.1859E+03   0.10357  -0.25892
     955.00   3.980003     0.1848E+03   0.10101  -0.25253
     957.00   3.980912     0.1878E+03   0.10808  -0.27019
     959.00   3.981819     0.1904E+03   0.11410  -0.28526
     961.00   3.982723     0.1887E+03   0.11007  -0.27518
     963.00   3.983626     0.1919E+03   0.11743  -0.29357
     965.00   3.984527     0.1896E+03   0.11215  -0.28037
     967.00   3.985426     0.1905E+03   0.11420  -0.28551
     969.00   3.986324     0.1927E+03   0.11926  -0.29814
     971.00   3.987219     0.1882E+03   0.10910  -0.27275
     973.00   3.988113     0.1855E+03   0.10278  -0.25695
     975.00   3.989005     0.1855E+03   0.10265  -0.25661
     977.00   3.989895     0.1868E+03   0.10582  -0.26454
     979.00   3.990783     0.1853E+03   0.10231  -0.25578
     981.00   3.991669     0.1897E+03   0.11239  -0.28097
     983.00   3.992553     0.1876E+03   0.10771  -0.26928
     985.00   3.993436     0.1890E+03   0.11078  -0.27695
     987.00   3.994317     0.1880E+03   0.10858  -0.27145
     989.00   3.995196     0.1880E+03   0.10851  -0.27126
     991.00   3.996074     0.1881E+03   0.10874  -0.27185
     993.00   3.996949     0.1897E+03   0.11250  -0.28125
     995.00   3.997823     0.1911E+03   0.11556  -0.28890
     997.00   3.998695     0.1914E+03   0.11626  -0.29066
     999.00   3.999566     0.1909E+03   0.11532  -0.28829
    1003.00   4.001301     0.1929E+03   0.11981  -0.29953
    1008.00   4.003461     0.1927E+03   0.11929  -0.29821
    1013.00   4.005610     0.1982E+03   0.13155  -0.32888
    1018.00   4.007748     0.1960E+03   0.12670  -0.31674
    1023.00   4.009875     0.1985E+03   0.13216  -0.33041
    1028.00   4.011993     0.1998E+03   0.13502  -0.33755
    1033.00   4.014100     0.1995E+03   0.13434  -0.33585
    1038.00   4.016197     0.1988E+03   0.13279  -0.33198
    1043.00   4.018284     0.2006E+03   0.13679  -0.34198
    1048.00   4.020361     0.2000E+03   0.13534  -0.33834
    1053.00   4.022429     0.1951E+03   0.12476  -0.31191
    1058.00   4.024486     0.1899E+03   0.11284  -0.28210
    1063.00   4.026533     0.1885E+03   0.10968  -0.27419
    1068.00   4.028571     0.1899E+03   0.11291  -0.28227
    1073.00   4.030600     0.1925E+03   0.11872  -0.29680
    1078.00   4.032619     0.1919E+03   0.11758  -0.29396
    1083.00   4.034628     0.1897E+03   0.11240  -0.28099
    1088.00   4.036629     0.1884E+03   0.10953  -0.27383
    1093.00   4.038620     0.1877E+03   0.10788  -0.26970
    1098.00   4.040603     0.1849E+03   0.10143  -0.25357
    1103.00   4.042576     0.1841E+03   0.09946  -0.24865
    1108.00   4.044539     0.1769E+03   0.08215  -0.20539
    1113.00   4.046495     0.1786E+03   0.08625  -0.21562
    1118.00   4.048442     0.1783E+03   0.08561  -0.21403
    1123.00   4.050380     0.1793E+03   0.08805  -0.22012
    1128.00   4.052309     0.1798E+03   0.08930  -0.22326
    1133.00   4.054230     0.1802E+03   0.09022  -0.22555
    1138.00   4.056142     0.1803E+03   0.09044  -0.22611
    1143.00   4.058046     0.1798E+03   0.08930  -0.22325
    1148.00   4.059942     0.1816E+03   0.09352  -0.23379
    1153.00   4.061830     0.1821E+03   0.09464  -0.23661
    1158.00   4.063708     0.1812E+03   0.09247  -0.23118
    1163.00   4.065579     0.1799E+03   0.08940  -0.22351
    1168.00   4.067443     0.1801E+03   0.08989  -0.22472
    1173.00   4.069298     0.1798E+03   0.08929  -0.22322
    1178.00   4.071145     0.1764E+03   0.08100  -0.20250
    1183.00   4.072985     0.1738E+03   0.07441  -0.18604
    1188.00   4.074817     0.1720E+03   0.06990  -0.17475
    1193.00   4.076640     0.1744E+03   0.07602  -0.19004
    1198.00   4.078457     0.1710E+03   0.06741  -0.16852
    1203.00   4.080266     0.1744E+03   0.07600  -0.19000
    1208.00   4.082067     0.1740E+03   0.07485  -0.18712
    1213.00   4.083861     0.1746E+03   0.07641  -0.19102
    1218.00   4.085648     0.1751E+03   0.07759  -0.19398
    1223.00   4.087426     0.1745E+03   0.07624  -0.19060
    1228.00   4.089198     0.1738E+03   0.07442  -0.18605
    1233.00   4.090963     0.1730E+03   0.07244  -0.18111
    1238.00   4.092721     0.1728E+03   0.07202  -0.18006
    1243.00   4.094471     0.1688E+03   0.06176  -0.15441
    1248.00   4.096214     0.1695E+03   0.06366  -0.15916
    1253.00   4.097951     0.1689E+03   0.06200  -0.15500
    1258.00   4.099681     0.1673E+03   0.05789  -0.14473
    1263.00   4.101403     0.1675E+03   0.05831  -0.14578
    1268.00   4.103119     0.1669E+03   0.05673  -0.14183
    1273.00   4.104828     0.1666E+03   0.05599  -0.13999
    1278.00   4.106531     0.1672E+03   0.05761  -0.14402
    1283.00   4.108227     0.1640E+03   0.04928  -0.12320
    1288.00   4.109916     0.1655E+03   0.05313  -0.13281
    1293.00   4.111598     0.1643E+03   0.05015  -0.12539
    1298.00   4.113275     0.1658E+03   0.05390  -0.13474
    1303.00   4.114944     0.1643E+03   0.05002  -0.12504
    1308.00   4.116608     0.1645E+03   0.05049  -0.12622
    1313.00   4.118265     0.1617E+03   0.04312  -0.10779
    1318.00   4.119915     0.1611E+03   0.04155  -0.10389
    1323.00   4.121560     0.1608E+03   0.04068  -0.10170
    1328.00   4.123198     0.1586E+03   0.03480  -0.08701
    1333.00   4.124830     0.1586E+03   0.03479  -0.08699
    1338.00   4.126456     0.1572E+03   0.03075  -0.07688
    1343.00   4.128076     0.1571E+03   0.03050  -0.07625
    1348.00   4.129690     0.1557E+03   0.02680  -0.06699
    1353.00   4.131298     0.1548E+03   0.02418  -0.06046
    1358.00   4.132900     0.1527E+03   0.01835  -0.04588
    1363.00   4.134496     0.1525E+03   0.01780  -0.04451
    1368.00   4.136086     0.1536E+03   0.02079  -0.05197
    1373.00   4.137671     0.1545E+03   0.02340  -0.05850
    1378.00   4.139249     0.1547E+03   0.02378  -0.05945
    1383.00   4.140822     0.1547E+03   0.02387  -0.05968
    1388.00   4.142389     0.1533E+03   0.01994  -0.04986
    1393.00   4.143951     0.1355E+03  -0.03374   0.08436
    1398.00   4.145507     0.1370E+03  -0.02890   0.07226
    1403.00   4.147058     0.1364E+03  -0.03070   0.07674
    1408.00   4.148602     0.1375E+03  -0.02732   0.06831
    1413.00   4.150142     0.1366E+03  -0.03007   0.07518
    1418.00   4.151676     0.1378E+03  -0.02639   0.06597
    1423.00   4.153205     0.1373E+03  -0.02793   0.06983
    1428.00   4.154728     0.1364E+03  -0.03072   0.07681
    1433.00   4.156246     0.1391E+03  -0.02233   0.05582
    1438.00   4.157759     0.1401E+03  -0.01930   0.04826
    1443.00   4.159266     0.1384E+03  -0.02431   0.06078
    1448.00   4.160769     0.1407E+03  -0.01718   0.04294
    1453.00   4.162266     0.1403E+03  -0.01861   0.04652
    1457.00   4.163460     0.1412E+03  -0.01586   0.03966
    1462.00   4.164948     0.1324E+03  -0.04385   0.10962
    1468.00   4.166726     0.1338E+03  -0.03921   0.09802
    1473.00   4.168202     0.1337E+03  -0.03963   0.09907
    1478.00   4.169674     0.1352E+03  -0.03455   0.08637
    1483.00   4.171141     0.1365E+03  -0.03056   0.07640
    1488.00   4.172603     0.1364E+03  -0.03085   0.07713
    1493.00   4.174060     0.1397E+03  -0.02033   0.05082
    1498.00   4.175512     0.1397E+03  -0.02039   0.05097
    1503.00   4.176959     0.1389E+03  -0.02284   0.05710
    1508.00   4.178401     0.1401E+03  -0.01931   0.04827
    1513.00   4.179839     0.1425E+03  -0.01188   0.02969
    1518.00   4.181272     0.1435E+03  -0.00869   0.02172
    1523.00   4.182700     0.1439E+03  -0.00743   0.01858
    1528.00   4.184123     0.1452E+03  -0.00365   0.00913
    1533.00   4.185542     0.1453E+03  -0.00341   0.00851
    1538.00   4.186956     0.1408E+03  -0.01705   0.04262
    1543.00   4.188366     0.1429E+03  -0.01045   0.02612
    1548.00   4.189771     0.1438E+03  -0.00785   0.01963
    1553.00   4.191172     0.1436E+03  -0.00830   0.02075
    1558.00   4.192567     0.1364E+03  -0.03089   0.07723
    1563.00   4.193959     0.1381E+03  -0.02540   0.06350
    1568.00   4.195346     0.1396E+03  -0.02069   0.05172
    1573.00   4.196729     0.1435E+03  -0.00882   0.02204
    1578.00   4.198107     0.1253E+03  -0.06781   0.16952
    1583.00   4.199481     0.1315E+03  -0.04652   0.11630
    1588.00   4.200850     0.1346E+03  -0.03663   0.09157
    1593.00   4.202216     0.1394E+03  -0.02142   0.05354
    1598.00   4.203577     0.1430E+03  -0.01032   0.02579
    1605.00   4.205475     0.1323E+03  -0.04391   0.10978
    1615.00   4.208173     0.1393E+03  -0.02178   0.05444
    1625.00   4.210854     0.1307E+03  -0.04922   0.12304
    1635.00   4.213518     0.1390E+03  -0.02247   0.05617
    1645.00   4.216166     0.1312E+03  -0.04759   0.11897
    1655.00   4.218798     0.1366E+03  -0.03030   0.07575
    1665.00   4.221415     0.1308E+03  -0.04898   0.12244
    1675.00   4.224015     0.1350E+03  -0.03523   0.08806
    1685.00   4.226600     0.1369E+03  -0.02935   0.07338
    1695.00   4.229170     0.1329E+03  -0.04192   0.10480
    1705.00   4.231725     0.1325E+03  -0.04333   0.10832
    1715.00   4.234264     0.1294E+03  -0.05381   0.13453
    1725.00   4.236789     0.1278E+03  -0.05904   0.14760
    1735.00   4.239300     0.1235E+03  -0.07405   0.18513
    1745.00   4.241796     0.1222E+03  -0.07849   0.19623
    1755.00   4.244277     0.1208E+03  -0.08353   0.20883
    1765.00   4.246745     0.1174E+03  -0.09595   0.23988
    1775.00   4.249198     0.1143E+03  -0.10748   0.26870
    1785.00   4.251638     0.1124E+03  -0.11472   0.28680
    1795.00   4.254065     0.1092E+03  -0.12720   0.31800
    1805.00   4.256477     0.1065E+03  -0.13835   0.34588
    1815.00   4.258877     0.1047E+03  -0.14545   0.36363
    1825.00   4.261263     0.1031E+03  -0.15240   0.38101
    1835.00   4.263636     0.1014E+03  -0.15939   0.39847
    1845.00   4.265996     0.9942E+02  -0.16812   0.42030
    1855.00   4.268344     0.9803E+02  -0.17424   0.43561
    1865.00   4.270679     0.9542E+02  -0.18597   0.46492
    1875.00   4.273001     0.9365E+02  -0.19408   0.48521
    1885.00   4.275311     0.9265E+02  -0.19877   0.49693
    1895.00   4.277609     0.8999E+02  -0.21141   0.52854
    1905.00   4.279895     0.9005E+02  -0.21109   0.52773
    1915.00   4.282169     0.8836E+02  -0.21932   0.54830
    1925.00   4.284431     0.8712E+02  -0.22549   0.56371
    1935.00   4.286681     0.8503E+02  -0.23603   0.59007
    1945.00   4.288919     0.8318E+02  -0.24558   0.61396
    1955.00   4.291147     0.8212E+02  -0.25115   0.62787
    1965.00   4.293363     0.8028E+02  -0.26099   0.65247
    1975.00   4.295567     0.7798E+02  -0.27363   0.68407
    1985.00   4.297760     0.7683E+02  -0.28008   0.70019
    1995.00   4.299943     0.7589E+02  -0.28539   0.71348
    2005.00   4.302114     0.7528E+02  -0.28895   0.72236
    2015.00   4.304275     0.7423E+02  -0.29501   0.73753
    2025.00   4.306425     0.7270E+02  -0.30405   0.76014
    2035.00   4.308564     0.7195E+02  -0.30857   0.77143
    2045.00   4.310693     0.7165E+02  -0.31040   0.77601
    2055.00   4.312812     0.7067E+02  -0.31634   0.79084
    2065.00   4.314920     0.6977E+02  -0.32190   0.80475
    2075.00   4.317018     0.6916E+02  -0.32571   0.81428
    2085.00   4.319106     0.6836E+02  -0.33078   0.82694
    2095.00   4.321184     0.6743E+02  -0.33677   0.84192
    2105.00   4.323252     0.6708E+02  -0.33901   0.84752
    2115.00   4.325311     0.6613E+02  -0.34522   0.86306
    2125.00   4.327359     0.6530E+02  -0.35068   0.87670
    2135.00   4.329398     0.6478E+02  -0.35416   0.88539
    2145.00   4.331428     0.6396E+02  -0.35971   0.89927
    2155.00   4.333447     0.6309E+02  -0.36563   0.91407
    2165.00   4.335458     0.6212E+02  -0.37234   0.93084
    2175.00   4.337460     0.6124E+02  -0.37856   0.94640
    2185.00   4.339452     0.6055E+02  -0.38351   0.95878
    2195.00   4.341434     0.5982E+02  -0.38874   0.97186
    2205.00   4.343409     0.5857E+02  -0.39792   0.99480
    2215.00   4.345374     0.5825E+02  -0.40032   1.00080
    2225.00   4.347330     0.5704E+02  -0.40942   1.02355
    2235.00   4.349277     0.5630E+02  -0.41509   1.03772
    2245.00   4.351216     0.5551E+02  -0.42126   1.05316
    2255.00   4.353147     0.5483E+02  -0.42661   1.06654
    2265.00   4.355068     0.5376E+02  -0.43515   1.08787
    2275.00   4.356981     0.5333E+02  -0.43866   1.09664
    2285.00   4.358886     0.5230E+02  -0.44712   1.11780
    2295.00   4.360783     0.4081E+02  -0.55482   1.38706
    2305.00   4.362671     0.4601E+02  -0.50272   1.25681
    2315.00   4.364551     0.4596E+02  -0.50325   1.25812
    2325.00   4.366423     0.3795E+02  -0.58636   1.46590
    2335.00   4.368287     0.4208E+02  -0.54153   1.35382
    2345.00   4.370143     0.3768E+02  -0.58948   1.47370
    2355.00   4.371991     0.3515E+02  -0.61965   1.54914
    2365.00   4.373831     0.3851E+02  -0.58005   1.45013
    2375.00   4.375664     0.3531E+02  -0.61769   1.54421
    2385.00   4.377488     0.3299E+02  -0.64728   1.61819
    2395.00   4.379306     0.3551E+02  -0.61530   1.53824
    2405.00   4.381115     0.3351E+02  -0.64042   1.60106
    2415.00   4.382917     0.3074E+02  -0.67787   1.69468
    2425.00   4.384712     0.3277E+02  -0.65017   1.62542
    2435.00   4.386499     0.3060E+02  -0.67983   1.69959
    2445.00   4.388279     0.3088E+02  -0.67595   1.68987
    2455.00   4.390052     0.2936E+02  -0.69782   1.74456
    2465.00   4.391817     0.2889E+02  -0.70484   1.76211
    2475.00   4.393575     0.2792E+02  -0.71971   1.79927
    2485.00   4.395327     0.2348E+02  -0.79491   1.98727
    2495.00   4.397071     0.2177E+02  -0.82770   2.06926
    2505.00   4.398808     0.2213E+02  -0.82053   2.05133
    2515.00   4.400538     0.2116E+02  -0.84014   2.10035
    2525.00   4.402262     0.2170E+02  -0.82914   2.07285
    2535.00   4.403978     0.2176E+02  -0.82785   2.06963
    2545.00   4.405688     0.2160E+02  -0.83117   2.07793
    2555.00   4.407391     0.2169E+02  -0.82935   2.07336
    2565.00   4.409087     0.2202E+02  -0.82270   2.05674
    2575.00   4.410777     0.2237E+02  -0.81585   2.03963
    2585.00   4.412460     0.2204E+02  -0.82233   2.05582
    2595.00   4.414137     0.2214E+02  -0.82048   2.05121
    2605.00   4.415808     0.2218E+02  -0.81963   2.04908
    2615.00   4.417472     0.2187E+02  -0.82581   2.06451
    2625.00   4.419129     0.2158E+02  -0.83145   2.07862
    2635.00   4.420781     0.2158E+02  -0.83156   2.07889
    2645.00   4.422426     0.2140E+02  -0.83526   2.08814
    2655.00   4.424065     0.2117E+02  -0.83991   2.09978
    2665.00   4.425697     0.2087E+02  -0.84614   2.11534
    2675.00   4.427324     0.2106E+02  -0.84213   2.10532
    2685.00   4.428945     0.2084E+02  -0.84660   2.11650
    2695.00   4.430559     0.2048E+02  -0.85425   2.13562
    2705.00   4.432167     0.2048E+02  -0.85433   2.13582
    2715.00   4.433770     0.2031E+02  -0.85799   2.14497
    2725.00   4.435367     0.2019E+02  -0.86043   2.15108
    2735.00   4.436957     0.1987E+02  -0.86736   2.16841
    2745.00   4.438542     0.1984E+02  -0.86816   2.17040
    2755.00   4.440122     0.1973E+02  -0.87053   2.17633
    2765.00   4.441695     0.1949E+02  -0.87584   2.18960
    2775.00   4.443263     0.1923E+02  -0.88166   2.20414
    2785.00   4.444825     0.1917E+02  -0.88307   2.20767
    2795.00   4.446382     0.1908E+02  -0.88494   2.21236
    2805.00   4.447933     0.1889E+02  -0.88931   2.22327
    2815.00   4.449478     0.1865E+02  -0.89481   2.23703
    2825.00   4.451018     0.1853E+02  -0.89773   2.24431
    2835.00   4.452553     0.1843E+02  -0.90005   2.25012
    2845.00   4.454082     0.1822E+02  -0.90499   2.26248
    2855.00   4.455606     0.1805E+02  -0.90911   2.27278
    2865.00   4.457125     0.1790E+02  -0.91278   2.28195
    2875.00   4.458638     0.1775E+02  -0.91642   2.29105
    2885.00   4.460146     0.1758E+02  -0.92047   2.30119
    2895.00   4.461648     0.1743E+02  -0.92435   2.31088
    2905.00   4.463146     0.1726E+02  -0.92865   2.32162
    2915.00   4.464639     0.1712E+02  -0.93219   2.33047
    2925.00   4.466126     0.1686E+02  -0.93884   2.34709
    2935.00   4.467608     0.1680E+02  -0.94034   2.35084
    2945.00   4.469085     0.1662E+02  -0.94508   2.36270
    2955.00   4.470557     0.1647E+02  -0.94902   2.37254
    2965.00   4.472025     0.1635E+02  -0.95216   2.38040
    2975.00   4.473487     0.1620E+02  -0.95614   2.39036
    2985.00   4.474944     0.1601E+02  -0.96108   2.40269
    2995.00   4.476397     0.1585E+02  -0.96548   2.41370
    3005.00   4.477844     0.1574E+02  -0.96859   2.42148
    3015.00   4.479287     0.1569E+02  -0.97002   2.42506
    3025.00   4.480725     0.1557E+02  -0.97324   2.43309
    3035.00   4.482159     0.1547E+02  -0.97605   2.44013
    3045.00   4.483587     0.1543E+02  -0.97725   2.44313
    3055.00   4.485011     0.1533E+02  -0.98005   2.45013
    3065.00   4.486430     0.1524E+02  -0.98252   2.45630
    3075.00   4.487845     0.1519E+02  -0.98401   2.46003
    3085.00   4.489255     0.1508E+02  -0.98725   2.46812
    3095.00   4.490661     0.1504E+02  -0.98839   2.47098
    3105.00   4.492062     0.1499E+02  -0.98980   2.47449
    3115.00   4.493458     0.1484E+02  -0.99431   2.48577
    3125.00   4.494850     0.1480E+02  -0.99543   2.48857
    3135.00   4.496238     0.1471E+02  -0.99794   2.49484
    3145.00   4.497621     0.1462E+02  -1.00074   2.50185
    3155.00   4.499000     0.1451E+02  -1.00391   2.50977
    3165.00   4.500374     0.1440E+02  -1.00729   2.51821
    3175.00   4.501744     0.1434E+02  -1.00897   2.52243
    3185.00   4.503109     0.1427E+02  -1.01129   2.52821
    3195.00   4.504471     0.1421E+02  -1.01305   2.53262
    3210.00   4.506505     0.1407E+02  -1.01717   2.54294
    3230.00   4.509202     0.1389E+02  -1.02292   2.55731
    3250.00   4.511883     0.1372E+02  -1.02809   2.57023
    3270.00   4.514548     0.1353E+02  -1.03437   2.58593
    3290.00   4.517196     0.1331E+02  -1.04146   2.60366
    3310.00   4.519828     0.1314E+02  -1.04693   2.61732
    3330.00   4.522444     0.1293E+02  -1.05395   2.63489
    3350.00   4.525045     0.1275E+02  -1.06011   2.65029
    3370.00   4.527630     0.1254E+02  -1.06743   2.66859
    3390.00   4.530200     0.1231E+02  -1.07533   2.68834
    3410.00   4.532754     0.1208E+02  -1.08339   2.70848
    3430.00   4.535294     0.1190E+02  -1.09021   2.72551
    3450.00   4.537819     0.1168E+02  -1.09799   2.74498
    3470.00   4.540329     0.1147E+02  -1.10617   2.76544
    3490.00   4.542826     0.1127E+02  -1.11384   2.78460
    3510.00   4.545307     0.1107E+02  -1.12153   2.80383
    3530.00   4.547775     0.1085E+02  -1.13011   2.82529
    3550.00   4.550228     0.1066E+02  -1.13770   2.84424
    3570.00   4.552669     0.1046E+02  -1.14596   2.86490
    3590.00   4.555095     0.1027E+02  -1.15389   2.88473
    3610.00   4.557508     0.1010E+02  -1.16145   2.90362
    3630.00   4.559907     0.9904E+01  -1.16977   2.92442
    3650.00   4.562293     0.9706E+01  -1.17856   2.94639
    3670.00   4.564666     0.9524E+01  -1.18679   2.96698
    3690.00   4.567026     0.9324E+01  -1.19599   2.98996
    3710.00   4.569374     0.9142E+01  -1.20458   3.01144
    3730.00   4.571709     0.8995E+01  -1.21158   3.02895
    3750.00   4.574031     0.8800E+01  -1.22114   3.05284
    3770.00   4.576342     0.8665E+01  -1.22784   3.06959
    3790.00   4.578639     0.8494E+01  -1.23647   3.09117
    3810.00   4.580925     0.8342E+01  -1.24433   3.11082
    3830.00   4.583199     0.8198E+01  -1.25190   3.12975
    3850.00   4.585461     0.8048E+01  -1.25993   3.14982
    3870.00   4.587711     0.7877E+01  -1.26921   3.17303
    3890.00   4.589950     0.7738E+01  -1.27700   3.19249
    3910.00   4.592176     0.7600E+01  -1.28480   3.21201
    3930.00   4.594393     0.7458E+01  -1.29299   3.23248
    3950.00   4.596597     0.7298E+01  -1.30240   3.25601
    3970.00   4.598790     0.7168E+01  -1.31018   3.27544
    3990.00   4.600973     0.7012E+01  -1.31974   3.29934
    4010.00   4.603145     0.6899E+01  -1.32681   3.31703
    4030.00   4.605305     0.6782E+01  -1.33423   3.33558
    4050.00   4.607455     0.6648E+01  -1.34294   3.35734
    4070.00   4.609594     0.6530E+01  -1.35071   3.37678
    4090.00   4.611723     0.6411E+01  -1.35870   3.39675
    4110.00   4.613842     0.6303E+01  -1.36603   3.41507
    4130.00   4.615950     0.6202E+01  -1.37309   3.43271
    4150.00   4.618048     0.6092E+01  -1.38082   3.45206
    4170.00   4.620136     0.5991E+01  -1.38813   3.47031
    4190.00   4.622214     0.5885E+01  -1.39583   3.48959
    4210.00   4.624282     0.5781E+01  -1.40363   3.50906
    4230.00   4.626340     0.5704E+01  -1.40945   3.52363
    4250.00   4.628389     0.5600E+01  -1.41744   3.54359
    4270.00   4.630428     0.5515E+01  -1.42404   3.56010
    4290.00   4.632457     0.5306E+01  -1.44080   3.60199
    4310.00   4.634478     0.5084E+01  -1.45938   3.64844
    4330.00   4.636488     0.5049E+01  -1.46235   3.65589
    4350.00   4.638489     0.4877E+01  -1.47746   3.69366
    4370.00   4.640481     0.4761E+01  -1.48789   3.71973
    4390.00   4.642465     0.4670E+01  -1.49631   3.74078
    4410.00   4.644439     0.4530E+01  -1.50951   3.77377
    4430.00   4.646404     0.4460E+01  -1.51626   3.79066
    4450.00   4.648360     0.4384E+01  -1.52369   3.80922
    4470.00   4.650308     0.4266E+01  -1.53553   3.83883
    4490.00   4.652246     0.4236E+01  -1.53867   3.84667
    4510.00   4.654177     0.4146E+01  -1.54799   3.86997
    4530.00   4.656098     0.4059E+01  -1.55722   3.89306
    4550.00   4.658011     0.4021E+01  -1.56122   3.90305
    4570.00   4.659916     0.3968E+01  -1.56704   3.91760
    4590.00   4.661813     0.3870E+01  -1.57784   3.94461
    4610.00   4.663701     0.3850E+01  -1.58009   3.95024
    4630.00   4.665581     0.3782E+01  -1.58788   3.96969
    4650.00   4.667453     0.3738E+01  -1.59301   3.98252
    4670.00   4.669317     0.3703E+01  -1.59706   3.99266
    4690.00   4.671173     0.3638E+01  -1.60478   4.01195
    4710.00   4.673021     0.3580E+01  -1.61173   4.02932
    4730.00   4.674861     0.3563E+01  -1.61384   4.03460
    4750.00   4.676694     0.3493E+01  -1.62236   4.05591
    4770.00   4.678518     0.3446E+01  -1.62823   4.07057
    4790.00   4.680336     0.3409E+01  -1.63294   4.08235
    4810.00   4.682145     0.3338E+01  -1.64207   4.10518
    4830.00   4.683947     0.3326E+01  -1.64366   4.10916
    4850.00   4.685741     0.3271E+01  -1.65095   4.12738
    4870.00   4.687529     0.3215E+01  -1.65846   4.14614
    4890.00   4.689309     0.3170E+01  -1.66452   4.16130
    4910.00   4.691082     0.3130E+01  -1.67001   4.17502
    4930.00   4.692847     0.3084E+01  -1.67652   4.19131
    4950.00   4.694605     0.3035E+01  -1.68343   4.20857
    4970.00   4.696356     0.3007E+01  -1.68750   4.21876
    4990.00   4.698101     0.2965E+01  -1.69358   4.23396
    5010.00   4.699838     0.2926E+01  -1.69938   4.24845
    5030.00   4.701568     0.2886E+01  -1.70524   4.26310
    5050.00   4.703291     0.2835E+01  -1.71305   4.28262
    5070.00   4.705008     0.2807E+01  -1.71737   4.29342
    5090.00   4.706717     0.2769E+01  -1.72322   4.30804
    5110.00   4.708421     0.2726E+01  -1.73010   4.32525
    5130.00   4.710117     0.2701E+01  -1.73403   4.33507
    5150.00   4.711807     0.2657E+01  -1.74114   4.35284
    5170.00   4.713490     0.2636E+01  -1.74457   4.36143
    5190.00   4.715167     0.2594E+01  -1.75161   4.37901
    5210.00   4.716838     0.2565E+01  -1.75659   4.39149
    5230.00   4.718502     0.2524E+01  -1.76356   4.40889
    5250.00   4.720160     0.2499E+01  -1.76784   4.41961
    5270.00   4.721810     0.2479E+01  -1.77137   4.42843
    5290.00   4.723455     0.2432E+01  -1.77960   4.44899
    5310.00   4.725095     0.2401E+01  -1.78526   4.46316
    5330.00   4.726727     0.2376E+01  -1.78969   4.47422
    5350.00   4.728354     0.2347E+01  -1.79508   4.48769
    5370.00   4.729974     0.2320E+01  -1.80016   4.50040
    5390.00   4.731589     0.2292E+01  -1.80533   4.51332
    5410.00   4.733197     0.2265E+01  -1.81061   4.52653
    5430.00   4.734800     0.2228E+01  -1.81768   4.54421
    5450.00   4.736397     0.2211E+01  -1.82101   4.55253
    5470.00   4.737988     0.2178E+01  -1.82762   4.56906
    5490.00   4.739573     0.2154E+01  -1.83241   4.58102
    5510.00   4.741152     0.2126E+01  -1.83809   4.59522
    5530.00   4.742725     0.2118E+01  -1.83965   4.59912
    5550.00   4.744293     0.2073E+01  -1.84891   4.62227
    5570.00   4.745855     0.2061E+01  -1.85158   4.62895
    5590.00   4.747412     0.2030E+01  -1.85814   4.64536
    5610.00   4.748963     0.2011E+01  -1.86216   4.65540
    5630.00   4.750508     0.1979E+01  -1.86913   4.67282
    5650.00   4.752048     0.1964E+01  -1.87255   4.68138
    5670.00   4.753583     0.1940E+01  -1.87777   4.69443
    5690.00   4.755112     0.1910E+01  -1.88461   4.71153
    5710.00   4.756636     0.1896E+01  -1.88768   4.71921
    5730.00   4.758155     0.1873E+01  -1.89313   4.73282
    5750.00   4.759668     0.1851E+01  -1.89831   4.74576
    5770.00   4.761176     0.1827E+01  -1.90387   4.75968
    5790.00   4.762679     0.1811E+01  -1.90777   4.76942
    5810.00   4.764176     0.1785E+01  -1.91398   4.78495
    5830.00   4.765669     0.1765E+01  -1.91880   4.79699
    5850.00   4.767156     0.1745E+01  -1.92377   4.80942
    5870.00   4.768638     0.1720E+01  -1.92995   4.82487
    5890.00   4.770115     0.1702E+01  -1.93473   4.83681
    5910.00   4.771587     0.1683E+01  -1.93948   4.84869
    5930.00   4.773055     0.1665E+01  -1.94428   4.86070
    5950.00   4.774517     0.1643E+01  -1.95006   4.87514
    5970.00   4.775974     0.1627E+01  -1.95425   4.88562
    5990.00   4.777427     0.1608E+01  -1.95932   4.89830
    6010.00   4.778874     0.1589E+01  -1.96441   4.91101
    6030.00   4.780317     0.1571E+01  -1.96954   4.92384
    6050.00   4.781755     0.1550E+01  -1.97533   4.93833
    6070.00   4.783189     0.1532E+01  -1.98024   4.95059
    6090.00   4.784617     0.1514E+01  -1.98535   4.96338
    6110.00   4.786041     0.1496E+01  -1.99071   4.97678
    6130.00   4.787460     0.1481E+01  -1.99514   4.98784
    6150.00   4.788875     0.1465E+01  -1.99990   4.99974
    6170.00   4.790285     0.1449E+01  -2.00447   5.01118
    6190.00   4.791691     0.1432E+01  -2.00960   5.02400
    6210.00   4.793092     0.1417E+01  -2.01426   5.03565
    6230.00   4.794488     0.1399E+01  -2.01979   5.04947
    6250.00   4.795880     0.1381E+01  -2.02525   5.06313
    6270.00   4.797267     0.1366E+01  -2.03022   5.07554
    6290.00   4.798651     0.1351E+01  -2.03482   5.08706
    6310.00   4.800029     0.1335E+01  -2.04000   5.10000
    6330.00   4.801404     0.1323E+01  -2.04409   5.11024
    6350.00   4.802773     0.1307E+01  -2.04945   5.12361
    6370.00   4.804139     0.1294E+01  -2.05366   5.13414
    6390.00   4.805501     0.1277E+01  -2.05928   5.14821
    6420.00   4.807535     0.1257E+01  -2.06631   5.16577
    6460.00   4.810232     0.1228E+01  -2.07630   5.19074
    6500.00   4.812913     0.1201E+01  -2.08593   5.21483
    6540.00   4.815578     0.1175E+01  -2.09558   5.23895
    6580.00   4.818226     0.1150E+01  -2.10495   5.26237
    6620.00   4.820858     0.1124E+01  -2.11470   5.28676
    6660.00   4.823474     0.1100E+01  -2.12415   5.31037
    6700.00   4.826075     0.1077E+01  -2.13358   5.33395
    6740.00   4.828660     0.1053E+01  -2.14323   5.35807
    6780.00   4.831230     0.1030E+01  -2.15258   5.38145
    6820.00   4.833784     0.1008E+01  -2.16203   5.40509
    6860.00   4.836324     0.9873E+00  -2.17117   5.42793
    6900.00   4.838849     0.9662E+00  -2.18055   5.45138
    6940.00   4.841359     0.9459E+00  -2.18977   5.47442
    6980.00   4.843855     0.9261E+00  -2.19893   5.49732
    7020.00   4.846337     0.9065E+00  -2.20825   5.52063
    7060.00   4.848804     0.8879E+00  -2.21722   5.54306
    7100.00   4.851258     0.8695E+00  -2.22633   5.56582
    7140.00   4.853698     0.8517E+00  -2.23530   5.58826
    7180.00   4.856124     0.8342E+00  -2.24435   5.61089
    7220.00   4.858537     0.8172E+00  -2.25326   5.63314
    7260.00   4.860937     0.8005E+00  -2.26222   5.65556
    7300.00   4.863323     0.7844E+00  -2.27105   5.67762
    7340.00   4.865696     0.7685E+00  -2.27998   5.69995
    7380.00   4.868056     0.7532E+00  -2.28868   5.72170
    7420.00   4.870404     0.7377E+00  -2.29774   5.74434
    7460.00   4.872739     0.7231E+00  -2.30642   5.76605
    7500.00   4.875061     0.7089E+00  -2.31500   5.78749
    7540.00   4.877371     0.6948E+00  -2.32372   5.80930
    7580.00   4.879669     0.6817E+00  -2.33201   5.83004
    7620.00   4.881955     0.6684E+00  -2.34055   5.85138
    7660.00   4.884229     0.6555E+00  -2.34906   5.87264
    7700.00   4.886491     0.6427E+00  -2.35759   5.89397
    7740.00   4.888741     0.6304E+00  -2.36595   5.91488
    7780.00   4.890980     0.6184E+00  -2.37431   5.93578
    7820.00   4.893207     0.6066E+00  -2.38267   5.95669
    7860.00   4.895422     0.5952E+00  -2.39097   5.97742
    7900.00   4.897627     0.5839E+00  -2.39925   5.99813
    7940.00   4.899820     0.5730E+00  -2.40747   6.01868
    7980.00   4.902003     0.5623E+00  -2.41563   6.03909
    8020.00   4.904174     0.5516E+00  -2.42397   6.05992
    8060.00   4.906335     0.5414E+00  -2.43205   6.08014
    8100.00   4.908485     0.5316E+00  -2.44004   6.10010
    8140.00   4.910625     0.5217E+00  -2.44815   6.12037
    8180.00   4.912753     0.5123E+00  -2.45605   6.14013
    8220.00   4.914872     0.5030E+00  -2.46401   6.16002
    8260.00   4.916980     0.4939E+00  -2.47197   6.17993
    8300.00   4.919078     0.4850E+00  -2.47986   6.19966
    8340.00   4.921166     0.4762E+00  -2.48784   6.21961
    8380.00   4.923244     0.4676E+00  -2.49569   6.23923
    8420.00   4.925312     0.4594E+00  -2.50336   6.25840
    8460.00   4.927370     0.4513E+00  -2.51117   6.27792
    8500.00   4.929419     0.4433E+00  -2.51888   6.29719
    8540.00   4.931458     0.4356E+00  -2.52654   6.31634
    8580.00   4.933487     0.4280E+00  -2.53416   6.33540
    8620.00   4.935507     0.4206E+00  -2.54178   6.35444
    8660.00   4.937518     0.4133E+00  -2.54933   6.37333
    8700.00   4.939519     0.4062E+00  -2.55691   6.39227
    8740.00   4.941511     0.3992E+00  -2.56442   6.41104
    8780.00   4.943495     0.3923E+00  -2.57193   6.42983
    8820.00   4.945469     0.3856E+00  -2.57946   6.44865
    8860.00   4.947433     0.3791E+00  -2.58687   6.46717
    8900.00   4.949390     0.3726E+00  -2.59430   6.48575
    8940.00   4.951338     0.3664E+00  -2.60159   6.50397
    8980.00   4.953277     0.3602E+00  -2.60909   6.52272
    9020.00   4.955207     0.3543E+00  -2.61623   6.54057
    9060.00   4.957129     0.3484E+00  -2.62346   6.55866
    9100.00   4.959042     0.3425E+00  -2.63096   6.57740
    9140.00   4.960946     0.3370E+00  -2.63801   6.59503
    9180.00   4.962843     0.3314E+00  -2.64520   6.61300
    9220.00   4.964731     0.3261E+00  -2.65224   6.63060
    9260.00   4.966611     0.3208E+00  -2.65938   6.64845
    9300.00   4.968483     0.3156E+00  -2.66646   6.66615
    9340.00   4.970347     0.3105E+00  -2.67355   6.68388
    9380.00   4.972203     0.3055E+00  -2.68057   6.70142
    9420.00   4.974051     0.3006E+00  -2.68758   6.71894
    9460.00   4.975891     0.2958E+00  -2.69460   6.73650
    9500.00   4.977724     0.2911E+00  -2.70154   6.75386
    9540.00   4.979548     0.2865E+00  -2.70846   6.77115
    9580.00   4.981365     0.2820E+00  -2.71533   6.78833
    9620.00   4.983175     0.2776E+00  -2.72223   6.80558
    9660.00   4.984977     0.2732E+00  -2.72906   6.82264
    9700.00   4.986772     0.2690E+00  -2.73586   6.83965
    9740.00   4.988559     0.2647E+00  -2.74288   6.85721
    9780.00   4.990339     0.2607E+00  -2.74949   6.87373
    9820.00   4.992111     0.2567E+00  -2.75617   6.89043
    9860.00   4.993877     0.2528E+00  -2.76289   6.90722
    9900.00   4.995635     0.2489E+00  -2.76955   6.92389
    9940.00   4.997386     0.2451E+00  -2.77625   6.94064
    9980.00   4.999130     0.2414E+00  -2.78288   6.95719
   10020.00   5.000868     0.2377E+00  -2.78948   6.97370
   20000.00   5.301030     0.1646E-01  -3.94908   9.87270
   40000.00   5.602060     0.1075E-02  -5.13400  12.83501
   60000.00   5.778151     0.2152E-03  -5.83272  14.58181
   80000.00   5.903090     0.6848E-04  -6.33005  15.82513
  100000.00   6.000000     0.2813E-04  -6.71648  16.79120
  120000.00   6.079181     0.1358E-04  -7.03255  17.58138
  140000.00   6.146128     0.7338E-05  -7.30001  18.25002
  160000.00   6.204120     0.4303E-05  -7.53181  18.82952
