age =    8.0    [Fe/H] =    0.00

wavele(nm) log wave(A)   Hlam       log(Hlam/Hlam(V))  Hlam(mag(V)) 
      89.50   2.951823     0.1251E-12 -15.24344  38.10860
      90.50   2.956649     0.2020E-12 -15.03533  37.58832
      91.50   2.961421     0.3166E-12 -14.84006  37.10016
      92.50   2.966142     0.5508E-10 -12.59965  31.49912
      93.50   2.970812     0.7692E-10 -12.45459  31.13649
      94.50   2.975432     0.1099E-09 -12.29979  30.74946
      95.50   2.980003     0.1649E-09 -12.12344  30.30860
      96.50   2.984527     0.2371E-09 -11.96577  29.91442
      97.50   2.989005     0.3158E-09 -11.84127  29.60316
      98.50   2.993436     0.4397E-09 -11.69749  29.24373
      99.50   2.997823     0.5920E-09 -11.56831  28.92077
     100.50   3.002166     0.8705E-09 -11.40083  28.50207
     101.50   3.006466     0.1173E-08 -11.27141  28.17852
     102.50   3.010724     0.1378E-08 -11.20124  28.00310
     103.50   3.014940     0.2167E-08 -11.00478  27.51194
     104.50   3.019116     0.2937E-08 -10.87273  27.18181
     105.50   3.023252     0.3795E-08 -10.76146  26.90364
     106.50   3.027350     0.4994E-08 -10.64218  26.60545
     107.50   3.031409     0.6694E-08 -10.51493  26.28732
     108.50   3.035430     0.8894E-08 -10.39152  25.97881
     109.50   3.039414     0.1120E-07 -10.29131  25.72827
     110.50   3.043362     0.7600E-07  -9.45983  23.64957
     111.50   3.047275     0.1436E-06  -9.18344  22.95860
     112.50   3.051152     0.2171E-06  -9.00397  22.50994
     113.50   3.054996     0.3198E-06  -8.83575  22.08937
     114.50   3.058805     0.4274E-06  -8.70976  21.77439
     115.50   3.062582     0.4928E-06  -8.64794  21.61984
     116.50   3.066326     0.6742E-06  -8.51182  21.27956
     117.50   3.070038     0.8628E-06  -8.40473  21.01183
     118.50   3.073718     0.9308E-06  -8.37174  20.92935
     119.50   3.077368     0.7130E-06  -8.48751  21.21877
     120.50   3.080987     0.7713E-06  -8.45341  21.13353
     121.50   3.084576     0.1564E-06  -9.14625  22.86563
     122.50   3.088136     0.1027E-05  -8.32903  20.82257
     123.50   3.091667     0.2216E-05  -7.99499  19.98746
     124.50   3.095169     0.3378E-05  -7.81193  19.52982
     125.50   3.098644     0.4216E-05  -7.71572  19.28930
     126.50   3.102091     0.4416E-05  -7.69557  19.23892
     127.50   3.105510     0.5593E-05  -7.59299  18.98248
     128.50   3.108903     0.6530E-05  -7.52571  18.81427
     129.50   3.112270     0.7929E-05  -7.44138  18.60345
     130.50   3.115611     0.8121E-05  -7.43102  18.57755
     131.50   3.118926     0.1032E-04  -7.32697  18.31742
     132.50   3.122216     0.1087E-04  -7.30451  18.26127
     133.50   3.125481     0.1211E-04  -7.25730  18.14324
     134.50   3.128722     0.1418E-04  -7.18903  17.97258
     135.50   3.131939     0.1625E-04  -7.12976  17.82439
     136.50   3.135133     0.1742E-04  -7.09948  17.74870
     137.50   3.138303     0.1871E-04  -7.06861  17.67152
     138.50   3.141450     0.2046E-04  -7.02972  17.57430
     139.50   3.144574     0.2301E-04  -6.97864  17.44661
     140.50   3.147676     0.2766E-04  -6.89877  17.24693
     141.50   3.150756     0.3112E-04  -6.84755  17.11888
     142.50   3.153815     0.3556E-04  -6.78968  16.97419
     143.50   3.156852     0.4171E-04  -6.72039  16.80098
     144.20   3.158965     0.5399E-04  -6.60834  16.52085
     144.70   3.160469     0.4843E-04  -6.65554  16.63885
     145.50   3.162863     0.5707E-04  -6.58419  16.46047
     146.50   3.165838     0.7187E-04  -6.48405  16.21013
     147.50   3.168792     0.8129E-04  -6.43060  16.07649
     148.50   3.171726     0.8763E-04  -6.39797  15.99491
     149.50   3.174641     0.1146E-03  -6.28124  15.70311
     150.50   3.177536     0.1387E-03  -6.19844  15.49610
     151.20   3.179552     0.1055E-03  -6.31738  15.79346
     151.70   3.180986     0.1343E-03  -6.21250  15.53124
     152.50   3.183270     0.3022E-03  -5.86027  14.65067
     153.50   3.186108     0.4780E-03  -5.66121  14.15302
     154.50   3.188928     0.4036E-03  -5.73470  14.33675
     155.50   3.191730     0.6400E-03  -5.53443  13.83608
     156.50   3.194514     0.6029E-03  -5.56038  13.90094
     157.50   3.197281     0.1068E-02  -5.31202  13.28006
     158.50   3.200029     0.1293E-02  -5.22919  13.07297
     159.50   3.202761     0.1507E-02  -5.16245  12.90614
     160.50   3.205475     0.1613E-02  -5.13293  12.83232
     161.50   3.208173     0.1773E-02  -5.09184  12.72960
     162.50   3.210853     0.1971E-02  -5.04592  12.61479
     163.50   3.213518     0.2304E-02  -4.97812  12.44531
     164.50   3.216166     0.3192E-02  -4.83651  12.09128
     165.50   3.218798     0.2034E-02  -5.03229  12.58071
     166.50   3.221414     0.3640E-02  -4.77947  11.94868
     167.20   3.223236     0.2570E-02  -4.93069  12.32673
     167.70   3.224533     0.8983E-02  -4.38721  10.96804
     168.50   3.226600     0.1014E-01  -4.33440  10.83599
     169.50   3.229170     0.1238E-01  -4.24791  10.61976
     170.50   3.231725     0.1347E-01  -4.21111  10.52778
     171.50   3.234264     0.1380E-01  -4.20080  10.50200
     172.50   3.236789     0.1712E-01  -4.10718  10.26795
     173.50   3.239300     0.2094E-01  -4.01957  10.04893
     174.50   3.241796     0.2803E-01  -3.89304   9.73260
     175.50   3.244277     0.3924E-01  -3.74685   9.36712
     176.50   3.246745     0.3431E-01  -3.80525   9.51312
     177.50   3.249198     0.3985E-01  -3.74014   9.35035
     178.50   3.251638     0.5162E-01  -3.62778   9.06946
     179.50   3.254065     0.6949E-01  -3.49870   8.74674
     180.50   3.256477     0.6665E-01  -3.51683   8.79206
     181.50   3.258877     0.6006E-01  -3.56203   8.90508
     182.50   3.261263     0.7545E-01  -3.46295   8.65738
     183.50   3.263636     0.7829E-01  -3.44689   8.61722
     184.50   3.265996     0.5753E-01  -3.58069   8.95172
     185.50   3.268344     0.8965E-01  -3.38807   8.47018
     186.50   3.270679     0.1101E+00  -3.29881   8.24704
     187.50   3.273001     0.1166E+00  -3.27380   8.18450
     188.50   3.275311     0.1248E+00  -3.24428   8.11071
     189.50   3.277609     0.1643E+00  -3.12501   7.81253
     190.50   3.279895     0.1574E+00  -3.14350   7.85875
     191.50   3.282169     0.1743E+00  -3.09923   7.74809
     192.50   3.284431     0.1616E+00  -3.13212   7.83030
     193.50   3.286681     0.1081E+00  -3.30670   8.26675
     194.50   3.288920     0.2228E+00  -2.99263   7.48158
     195.50   3.291147     0.2319E+00  -2.97525   7.43813
     196.70   3.293804     0.3051E+00  -2.85612   7.14031
     197.60   3.295787     0.2730E+00  -2.90447   7.26118
     198.40   3.297542     0.3522E+00  -2.79382   6.98455
     199.50   3.299943     0.3761E+00  -2.76532   6.91329
     200.50   3.302114     0.3584E+00  -2.78625   6.96564
     201.50   3.304275     0.3891E+00  -2.75061   6.87653
     202.50   3.306425     0.3061E+00  -2.85474   7.13685
     203.50   3.308564     0.4447E+00  -2.69255   6.73138
     204.50   3.310693     0.5194E+00  -2.62509   6.56272
     205.50   3.312812     0.5141E+00  -2.62960   6.57399
     206.50   3.314920     0.5058E+00  -2.63664   6.59159
     207.40   3.316809     0.5590E+00  -2.59317   6.48293
     207.80   3.317646     0.1772E+01  -2.09210   5.23026
     208.50   3.319106     0.2487E+01  -1.94495   4.86238
     209.50   3.321184     0.2258E+01  -1.98697   4.96743
     210.50   3.323252     0.2190E+01  -2.00013   5.00032
     211.50   3.325310     0.2585E+01  -1.92809   4.82024
     212.50   3.327359     0.2208E+01  -1.99662   4.99155
     213.50   3.329398     0.2133E+01  -2.01156   5.02889
     214.50   3.331427     0.2949E+01  -1.87089   4.67721
     215.50   3.333447     0.2865E+01  -1.88355   4.70887
     216.50   3.335458     0.2381E+01  -1.96394   4.90985
     217.50   3.337459     0.2402E+01  -1.96001   4.90002
     218.50   3.339452     0.3434E+01  -1.80477   4.51192
     219.50   3.341434     0.3233E+01  -1.83101   4.57751
     220.50   3.343409     0.3190E+01  -1.83689   4.59223
     221.50   3.345374     0.2245E+01  -1.98936   4.97340
     222.50   3.347330     0.2913E+01  -1.87629   4.69072
     223.50   3.349277     0.4199E+01  -1.71746   4.29366
     224.50   3.351216     0.3977E+01  -1.74102   4.35255
     225.50   3.353147     0.2790E+01  -1.89499   4.73749
     226.50   3.355068     0.2430E+01  -1.95499   4.88747
     227.50   3.356982     0.2734E+01  -1.90385   4.75964
     228.50   3.358886     0.4284E+01  -1.70874   4.27186
     229.50   3.360783     0.3299E+01  -1.82226   4.55565
     230.50   3.362671     0.4371E+01  -1.70000   4.25001
     231.50   3.364551     0.3457E+01  -1.80193   4.50484
     232.50   3.366423     0.2795E+01  -1.89423   4.73559
     233.50   3.368287     0.2293E+01  -1.98025   4.95062
     234.50   3.370143     0.1357E+01  -2.20793   5.51983
     235.50   3.371991     0.3196E+01  -1.83602   4.59005
     236.50   3.373831     0.1616E+01  -2.13208   5.33019
     237.50   3.375664     0.2258E+01  -1.98695   4.96737
     238.50   3.377488     0.1201E+01  -2.26106   5.65264
     239.50   3.379306     0.1599E+01  -2.13676   5.34191
     240.50   3.381115     0.1639E+01  -2.12614   5.31536
     241.50   3.382917     0.2027E+01  -2.03371   5.08428
     242.50   3.384712     0.4094E+01  -1.72851   4.32127
     243.50   3.386499     0.4214E+01  -1.71594   4.28984
     244.50   3.388279     0.5261E+01  -1.61951   4.04877
     245.50   3.390052     0.5768E+01  -1.57960   3.94899
     246.50   3.391817     0.4579E+01  -1.67981   4.19954
     247.50   3.393575     0.3952E+01  -1.74385   4.35963
     248.50   3.395326     0.1810E+01  -2.08298   5.20744
     249.50   3.397071     0.2680E+01  -1.91251   4.78128
     250.50   3.398808     0.4731E+01  -1.66571   4.16427
     251.30   3.400192     0.1611E+01  -2.13358   5.33395
     251.80   3.401056     0.1151E+01  -2.27965   5.69912
     252.50   3.402261     0.1357E+01  -2.20803   5.52008
     253.50   3.403978     0.2944E+01  -1.87170   4.67924
     254.50   3.405688     0.3176E+01  -1.83877   4.59693
     255.50   3.407391     0.7157E+01  -1.48587   3.71467
     256.50   3.409087     0.4831E+01  -1.65657   4.14142
     257.50   3.410777     0.6667E+01  -1.51670   3.79176
     258.50   3.412461     0.5664E+01  -1.58746   3.96865
     259.50   3.414137     0.4933E+01  -1.64746   4.11866
     260.50   3.415808     0.4100E+01  -1.72783   4.31957
     261.50   3.417472     0.3618E+01  -1.78212   4.45531
     262.50   3.419129     0.5347E+01  -1.61248   4.03119
     263.50   3.420781     0.1092E+02  -1.30256   3.25641
     264.50   3.422426     0.1514E+02  -1.16047   2.90117
     265.50   3.424065     0.2239E+02  -0.99048   2.47620
     266.50   3.425697     0.1310E+02  -1.22337   3.05842
     267.50   3.427324     0.1521E+02  -1.15838   2.89595
     268.50   3.428944     0.1822E+02  -1.08018   2.70045
     269.50   3.430559     0.1248E+02  -1.24453   3.11132
     270.50   3.432167     0.1607E+02  -1.13465   2.83662
     271.50   3.433770     0.1098E+02  -1.29986   3.24966
     272.50   3.435366     0.7981E+01  -1.43858   3.59645
     273.50   3.436957     0.1090E+02  -1.30336   3.25841
     274.50   3.438542     0.5567E+01  -1.59503   3.98757
     275.50   3.440122     0.8170E+01  -1.42837   3.57093
     276.50   3.441695     0.1133E+02  -1.28623   3.21557
     277.50   3.443263     0.1203E+02  -1.26039   3.15098
     278.50   3.444825     0.6482E+01  -1.52893   3.82233
     279.50   3.446382     0.2681E+01  -1.91240   4.78099
     280.50   3.447933     0.3347E+01  -1.81594   4.53986
     281.50   3.449478     0.1029E+02  -1.32824   3.32061
     282.50   3.451018     0.1617E+02  -1.13194   2.82985
     283.50   3.452553     0.1514E+02  -1.16049   2.90122
     284.50   3.454082     0.9819E+01  -1.34853   3.37133
     285.50   3.455606     0.4879E+01  -1.65226   4.13064
     286.50   3.457125     0.1500E+02  -1.16442   2.91106
     287.50   3.458638     0.2201E+02  -0.99810   2.49524
     288.50   3.460146     0.1945E+02  -1.05170   2.62925
     289.50   3.461648     0.2511E+02  -0.94069   2.35172
     291.00   3.463893     0.3570E+02  -0.78793   1.96983
     293.00   3.466868     0.3322E+02  -0.81925   2.04813
     295.00   3.469822     0.3291E+02  -0.82325   2.05813
     297.00   3.472756     0.3547E+02  -0.79071   1.97678
     299.00   3.475671     0.3775E+02  -0.76372   1.90929
     301.00   3.478566     0.3859E+02  -0.75410   1.88524
     303.00   3.481443     0.4170E+02  -0.72046   1.80114
     305.00   3.484300     0.4305E+02  -0.70660   1.76649
     307.00   3.487138     0.4220E+02  -0.71526   1.78816
     309.00   3.489959     0.3780E+02  -0.76308   1.90771
     311.00   3.492760     0.4445E+02  -0.69278   1.73194
     313.00   3.495544     0.4024E+02  -0.73594   1.83985
     315.00   3.498311     0.3987E+02  -0.73995   1.84987
     317.00   3.501059     0.4577E+02  -0.68002   1.70005
     319.00   3.503791     0.3904E+02  -0.74910   1.87274
     321.00   3.506505     0.4374E+02  -0.69971   1.74928
     323.00   3.509202     0.3713E+02  -0.77088   1.92719
     325.00   3.511883     0.5311E+02  -0.61547   1.53868
     327.00   3.514548     0.6127E+02  -0.55340   1.38349
     329.00   3.517196     0.5973E+02  -0.56445   1.41113
     331.00   3.519828     0.5544E+02  -0.59681   1.49202
     333.00   3.522444     0.5749E+02  -0.58105   1.45263
     335.00   3.525045     0.5606E+02  -0.59193   1.47982
     337.00   3.527630     0.4086E+02  -0.72935   1.82338
     339.00   3.530200     0.4801E+02  -0.65930   1.64824
     341.00   3.532754     0.5023E+02  -0.63962   1.59904
     343.00   3.535294     0.5381E+02  -0.60973   1.52432
     345.00   3.537819     0.6087E+02  -0.55620   1.39051
     347.00   3.540329     0.6338E+02  -0.53866   1.34665
     349.00   3.542825     0.7008E+02  -0.49500   1.23749
     351.00   3.545307     0.7351E+02  -0.47426   1.18564
     353.00   3.547775     0.6566E+02  -0.52329   1.30823
     355.00   3.550228     0.7326E+02  -0.47577   1.18941
     357.00   3.552668     0.5664E+02  -0.58753   1.46882
     359.00   3.555094     0.5967E+02  -0.56485   1.41213
     361.00   3.557507     0.7237E+02  -0.48107   1.20267
     363.00   3.559907     0.7376E+02  -0.47277   1.18192
     364.00   3.561101     0.7328E+02  -0.47565   1.18913
     365.00   3.562293     0.7776E+02  -0.44985   1.12463
     367.00   3.564666     0.8320E+02  -0.42048   1.05120
     369.00   3.567026     0.7409E+02  -0.47086   1.17715
     371.00   3.569374     0.7783E+02  -0.44946   1.12364
     373.00   3.571709     0.5104E+02  -0.63271   1.58177
     375.00   3.574031     0.5844E+02  -0.57393   1.43482
     377.00   3.576341     0.7674E+02  -0.45561   1.13903
     379.00   3.578639     0.7937E+02  -0.44096   1.10239
     381.00   3.580925     0.7477E+02  -0.46691   1.16726
     383.00   3.583199     0.4177E+02  -0.71977   1.79943
     385.00   3.585461     0.5887E+02  -0.57073   1.42681
     387.00   3.587711     0.5810E+02  -0.57642   1.44105
     389.00   3.589950     0.7278E+02  -0.47862   1.19654
     391.00   3.592177     0.8867E+02  -0.39284   0.98209
     393.00   3.594393     0.4153E+02  -0.72230   1.80575
     395.00   3.596597     0.7527E+02  -0.46401   1.16003
     397.00   3.598790     0.5134E+02  -0.63017   1.57542
     399.00   3.600973     0.1159E+03  -0.27643   0.69107
     401.00   3.603144     0.1286E+03  -0.23148   0.57870
     403.00   3.605305     0.1272E+03  -0.23602   0.59005
     405.00   3.607455     0.1218E+03  -0.25495   0.63738
     407.00   3.609594     0.1146E+03  -0.28147   0.70367
     409.00   3.611723     0.1427E+03  -0.18605   0.46513
     411.00   3.613842     0.1337E+03  -0.21457   0.53642
     413.00   3.615950     0.1304E+03  -0.22546   0.56364
     415.00   3.618048     0.1278E+03  -0.23394   0.58485
     417.00   3.620136     0.1297E+03  -0.22773   0.56934
     419.00   3.622214     0.1270E+03  -0.23691   0.59228
     421.00   3.624282     0.1287E+03  -0.23094   0.57735
     423.00   3.626340     0.1212E+03  -0.25714   0.64284
     425.00   3.628389     0.1306E+03  -0.22455   0.56137
     427.00   3.630428     0.1228E+03  -0.25159   0.62899
     429.00   3.632457     0.1143E+03  -0.28246   0.70616
     431.00   3.634477     0.9845E+02  -0.34739   0.86847
     433.00   3.636488     0.1469E+03  -0.17358   0.43396
     435.00   3.638489     0.1463E+03  -0.17536   0.43840
     437.00   3.640481     0.1600E+03  -0.13663   0.34157
     439.00   3.642465     0.1408E+03  -0.19210   0.48026
     441.00   3.644439     0.1499E+03  -0.16494   0.41235
     443.00   3.646404     0.1623E+03  -0.13042   0.32605
     445.00   3.648360     0.1638E+03  -0.12620   0.31551
     447.00   3.650307     0.1760E+03  -0.09504   0.23759
     449.00   3.652246     0.1812E+03  -0.08254   0.20636
     451.00   3.654176     0.2076E+03  -0.02329   0.05822
     453.00   3.656098     0.1804E+03  -0.08442   0.21106
     455.00   3.658011     0.1898E+03  -0.06242   0.15605
     457.00   3.659916     0.2066E+03  -0.02549   0.06373
     459.00   3.661813     0.1936E+03  -0.05362   0.13406
     461.00   3.663701     0.2003E+03  -0.03887   0.09717
     463.00   3.665581     0.1946E+03  -0.05150   0.12875
     465.00   3.667453     0.1978E+03  -0.04438   0.11095
     467.00   3.669317     0.2072E+03  -0.02414   0.06034
     469.00   3.671173     0.2024E+03  -0.03435   0.08587
     471.00   3.673021     0.1979E+03  -0.04416   0.11039
     473.00   3.674861     0.2050E+03  -0.02879   0.07198
     475.00   3.676694     0.2107E+03  -0.01700   0.04250
     477.00   3.678518     0.2061E+03  -0.02651   0.06627
     479.00   3.680336     0.2078E+03  -0.02299   0.05747
     481.00   3.682145     0.2081E+03  -0.02227   0.05567
     483.00   3.683947     0.2158E+03  -0.00653   0.01631
     485.00   3.685742     0.2050E+03  -0.02892   0.07230
     487.00   3.687529     0.1878E+03  -0.06699   0.16748
     489.00   3.689309     0.2092E+03  -0.01996   0.04990
     491.00   3.691082     0.2105E+03  -0.01740   0.04350
     493.00   3.692847     0.2068E+03  -0.02497   0.06242
     495.00   3.694605     0.2157E+03  -0.00680   0.01699
     497.00   3.696356     0.2073E+03  -0.02402   0.06004
     499.00   3.698101     0.1926E+03  -0.05585   0.13962
     501.00   3.699838     0.1814E+03  -0.08202   0.20506
     503.00   3.701568     0.1944E+03  -0.05201   0.13003
     505.00   3.703291     0.1946E+03  -0.05155   0.12887
     507.00   3.705008     0.2038E+03  -0.03148   0.07870
     509.00   3.706718     0.1923E+03  -0.05667   0.14168
     511.00   3.708421     0.1976E+03  -0.04492   0.11231
     513.00   3.710117     0.1913E+03  -0.05890   0.14724
     515.00   3.711807     0.1845E+03  -0.07464   0.18661
     517.00   3.713490     0.1648E+03  -0.12356   0.30889
     519.00   3.715167     0.1719E+03  -0.10540   0.26350
     521.00   3.716838     0.1879E+03  -0.06668   0.16669
     523.00   3.718502     0.2061E+03  -0.02651   0.06627
     525.00   3.720159     0.2157E+03  -0.00672   0.01680
     527.00   3.721811     0.1884E+03  -0.06545   0.16361
     529.00   3.723456     0.2205E+03   0.00273  -0.00683
     531.00   3.725095     0.2352E+03   0.03079  -0.07697
     533.00   3.726727     0.2054E+03  -0.02802   0.07005
     535.00   3.728354     0.2276E+03   0.01659  -0.04149
     537.00   3.729974     0.2256E+03   0.01268  -0.03169
     539.00   3.731589     0.2204E+03   0.00259  -0.00646
     541.00   3.733197     0.2171E+03  -0.00400   0.01000
     543.00   3.734800     0.2210E+03   0.00383  -0.00957
     545.00   3.736397     0.2259E+03   0.01333  -0.03332
     547.00   3.737987     0.2197E+03   0.00114  -0.00285
     549.00   3.739572     0.2230E+03   0.00777  -0.01942
     551.00   3.741152     0.2191E+03   0.00000   0.00000
     553.00   3.742725     0.2278E+03   0.01698  -0.04244
     555.00   3.744293     0.2321E+03   0.02515  -0.06288
     557.00   3.745855     0.2270E+03   0.01537  -0.03842
     559.00   3.747412     0.2209E+03   0.00348  -0.00871
     561.00   3.748963     0.2287E+03   0.01865  -0.04664
     563.00   3.750508     0.2270E+03   0.01535  -0.03837
     565.00   3.752048     0.2310E+03   0.02303  -0.05759
     567.00   3.753583     0.2254E+03   0.01239  -0.03097
     569.00   3.755112     0.2333E+03   0.02727  -0.06816
     571.00   3.756636     0.2257E+03   0.01282  -0.03205
     573.00   3.758155     0.2456E+03   0.04955  -0.12388
     575.00   3.759668     0.2368E+03   0.03379  -0.08447
     577.00   3.761176     0.2400E+03   0.03961  -0.09902
     579.00   3.762679     0.2305E+03   0.02196  -0.05490
     581.00   3.764176     0.2406E+03   0.04071  -0.10178
     583.00   3.765669     0.2469E+03   0.05183  -0.12958
     585.00   3.767156     0.2372E+03   0.03454  -0.08635
     587.00   3.768638     0.2368E+03   0.03369  -0.08421
     589.00   3.770115     0.2143E+03  -0.00957   0.02393
     591.00   3.771587     0.2329E+03   0.02662  -0.06654
     593.00   3.773055     0.2342E+03   0.02892  -0.07231
     595.00   3.774517     0.2348E+03   0.03007  -0.07517
     597.00   3.775974     0.2398E+03   0.03916  -0.09790
     599.00   3.777427     0.2363E+03   0.03277  -0.08191
     601.00   3.778874     0.2334E+03   0.02755  -0.06887
     603.00   3.780317     0.2403E+03   0.04018  -0.10045
     605.00   3.781755     0.2454E+03   0.04932  -0.12329
     607.00   3.783189     0.2447E+03   0.04798  -0.11994
     609.00   3.784617     0.2363E+03   0.03291  -0.08227
     611.00   3.786041     0.2380E+03   0.03604  -0.09010
     613.00   3.787461     0.2253E+03   0.01219  -0.03048
     615.00   3.788875     0.2309E+03   0.02280  -0.05701
     617.00   3.790285     0.2160E+03  -0.00608   0.01520
     619.00   3.791691     0.2286E+03   0.01838  -0.04596
     621.00   3.793092     0.2260E+03   0.01356  -0.03389
     623.00   3.794488     0.2188E+03  -0.00057   0.00144
     625.00   3.795880     0.2124E+03  -0.01344   0.03359
     627.00   3.797267     0.2235E+03   0.00871  -0.02176
     629.00   3.798651     0.2291E+03   0.01947  -0.04867
     631.00   3.800029     0.2245E+03   0.01066  -0.02665
     633.00   3.801404     0.2291E+03   0.01940  -0.04850
     635.00   3.802774     0.2309E+03   0.02284  -0.05711
     637.00   3.804139     0.2306E+03   0.02228  -0.05571
     639.00   3.805501     0.2355E+03   0.03136  -0.07841
     641.00   3.806858     0.2310E+03   0.02306  -0.05765
     643.00   3.808211     0.2336E+03   0.02789  -0.06974
     645.00   3.809560     0.2330E+03   0.02680  -0.06701
     647.00   3.810904     0.2328E+03   0.02638  -0.06594
     649.00   3.812245     0.2285E+03   0.01824  -0.04560
     651.00   3.813581     0.2371E+03   0.03437  -0.08591
     653.00   3.814913     0.2381E+03   0.03614  -0.09036
     655.00   3.816241     0.2322E+03   0.02515  -0.06289
     657.00   3.817565     0.2200E+03   0.00176  -0.00440
     659.00   3.818885     0.2321E+03   0.02498  -0.06245
     661.00   3.820201     0.2343E+03   0.02907  -0.07266
     663.00   3.821513     0.2306E+03   0.02229  -0.05573
     665.00   3.822822     0.2281E+03   0.01756  -0.04389
     667.00   3.824126     0.2218E+03   0.00526  -0.01316
     669.00   3.825426     0.2239E+03   0.00943  -0.02358
     671.00   3.826723     0.2138E+03  -0.01066   0.02666
     673.00   3.828015     0.2188E+03  -0.00057   0.00142
     675.00   3.829304     0.2148E+03  -0.00865   0.02162
     677.00   3.830589     0.2162E+03  -0.00584   0.01459
     679.00   3.831870     0.2140E+03  -0.01012   0.02529
     681.00   3.833147     0.2156E+03  -0.00688   0.01721
     683.00   3.834421     0.2192E+03   0.00026  -0.00064
     685.00   3.835690     0.2142E+03  -0.00984   0.02459
     687.00   3.836957     0.2185E+03  -0.00119   0.00298
     689.00   3.838219     0.2234E+03   0.00855  -0.02137
     691.00   3.839478     0.2253E+03   0.01210  -0.03024
     693.00   3.840733     0.2245E+03   0.01067  -0.02667
     695.00   3.841985     0.2255E+03   0.01248  -0.03121
     697.00   3.843233     0.2305E+03   0.02206  -0.05515
     699.00   3.844477     0.2315E+03   0.02394  -0.05986
     701.00   3.845718     0.2300E+03   0.02115  -0.05288
     703.00   3.846955     0.2324E+03   0.02566  -0.06415
     705.00   3.848189     0.2277E+03   0.01669  -0.04172
     707.00   3.849419     0.2155E+03  -0.00723   0.01808
     709.00   3.850646     0.2048E+03  -0.02928   0.07321
     711.00   3.851870     0.1980E+03  -0.04386   0.10964
     713.00   3.853090     0.1926E+03  -0.05590   0.13974
     715.00   3.854306     0.1923E+03  -0.05674   0.14185
     717.00   3.855519     0.1953E+03  -0.04987   0.12467
     719.00   3.856729     0.1917E+03  -0.05799   0.14498
     721.00   3.857935     0.1980E+03  -0.04395   0.10989
     723.00   3.859138     0.2043E+03  -0.03028   0.07569
     725.00   3.860338     0.2075E+03  -0.02362   0.05905
     727.00   3.861534     0.2105E+03  -0.01744   0.04359
     729.00   3.862728     0.2110E+03  -0.01640   0.04101
     731.00   3.863917     0.2213E+03   0.00430  -0.01074
     733.00   3.865104     0.2218E+03   0.00528  -0.01319
     735.00   3.866287     0.2284E+03   0.01808  -0.04519
     737.00   3.867467     0.2365E+03   0.03314  -0.08285
     739.00   3.868644     0.2319E+03   0.02463  -0.06157
     741.00   3.869818     0.2347E+03   0.02992  -0.07481
     743.00   3.870989     0.2412E+03   0.04177  -0.10443
     745.00   3.872156     0.2407E+03   0.04085  -0.10212
     747.00   3.873321     0.2472E+03   0.05239  -0.13098
     749.00   3.874482     0.2461E+03   0.05041  -0.12601
     751.00   3.875640     0.2479E+03   0.05361  -0.13403
     753.00   3.876795     0.2519E+03   0.06058  -0.15146
     755.00   3.877947     0.2537E+03   0.06368  -0.15920
     757.00   3.879096     0.2529E+03   0.06233  -0.15583
     759.00   3.880242     0.2442E+03   0.04716  -0.11790
     761.00   3.881385     0.2358E+03   0.03190  -0.07976
     763.00   3.882524     0.2271E+03   0.01555  -0.03888
     765.00   3.883662     0.2176E+03  -0.00305   0.00762
     767.00   3.884795     0.2051E+03  -0.02855   0.07139
     769.00   3.885926     0.2094E+03  -0.01962   0.04905
     771.00   3.887054     0.2054E+03  -0.02801   0.07002
     773.00   3.888180     0.2058E+03  -0.02711   0.06777
     775.00   3.889302     0.2042E+03  -0.03057   0.07643
     777.00   3.890421     0.2077E+03  -0.02315   0.05786
     779.00   3.891537     0.2085E+03  -0.02148   0.05371
     781.00   3.892651     0.2094E+03  -0.01956   0.04891
     783.00   3.893762     0.2095E+03  -0.01940   0.04850
     785.00   3.894870     0.2071E+03  -0.02449   0.06123
     787.00   3.895975     0.2114E+03  -0.01542   0.03854
     789.00   3.897077     0.2108E+03  -0.01667   0.04168
     791.00   3.898176     0.2054E+03  -0.02811   0.07028
     793.00   3.899273     0.2075E+03  -0.02356   0.05890
     795.00   3.900367     0.2078E+03  -0.02298   0.05744
     797.00   3.901458     0.2139E+03  -0.01040   0.02599
     799.00   3.902547     0.2145E+03  -0.00929   0.02323
     801.00   3.903632     0.2193E+03   0.00038  -0.00096
     803.00   3.904716     0.2209E+03   0.00352  -0.00879
     805.00   3.905796     0.2204E+03   0.00260  -0.00649
     807.00   3.906873     0.2260E+03   0.01350  -0.03375
     809.00   3.907948     0.2244E+03   0.01032  -0.02581
     811.00   3.909021     0.2266E+03   0.01468  -0.03669
     813.00   3.910090     0.2332E+03   0.02711  -0.06777
     815.00   3.911158     0.2360E+03   0.03221  -0.08053
     817.00   3.912222     0.2372E+03   0.03446  -0.08614
     819.00   3.913284     0.2325E+03   0.02582  -0.06455
     821.00   3.914343     0.2259E+03   0.01338  -0.03344
     823.00   3.915400     0.2269E+03   0.01527  -0.03817
     825.00   3.916454     0.2264E+03   0.01423  -0.03558
     827.00   3.917506     0.2278E+03   0.01702  -0.04255
     829.00   3.918555     0.2252E+03   0.01204  -0.03010
     831.00   3.919601     0.2182E+03  -0.00167   0.00418
     833.00   3.920645     0.2168E+03  -0.00462   0.01156
     835.00   3.921686     0.2161E+03  -0.00599   0.01498
     837.00   3.922725     0.2176E+03  -0.00305   0.00762
     839.00   3.923762     0.2116E+03  -0.01513   0.03782
     841.00   3.924796     0.2178E+03  -0.00247   0.00617
     843.00   3.925828     0.2108E+03  -0.01684   0.04210
     845.00   3.926857     0.2022E+03  -0.03492   0.08731
     847.00   3.927883     0.2012E+03  -0.03702   0.09256
     849.00   3.928908     0.2050E+03  -0.02884   0.07210
     851.00   3.929929     0.1961E+03  -0.04808   0.12021
     853.00   3.930949     0.2044E+03  -0.03007   0.07517
     855.00   3.931966     0.1980E+03  -0.04402   0.11004
     857.00   3.932981     0.2103E+03  -0.01772   0.04429
     859.00   3.933993     0.2081E+03  -0.02227   0.05569
     861.00   3.935003     0.2114E+03  -0.01559   0.03897
     863.00   3.936011     0.2157E+03  -0.00683   0.01708
     865.00   3.937016     0.2174E+03  -0.00328   0.00820
     867.00   3.938019     0.2046E+03  -0.02966   0.07415
     869.00   3.939020     0.2135E+03  -0.01117   0.02792
     871.00   3.940018     0.2197E+03   0.00130  -0.00325
     873.00   3.941014     0.2213E+03   0.00433  -0.01082
     875.00   3.942008     0.2197E+03   0.00130  -0.00324
     877.00   3.943000     0.2224E+03   0.00649  -0.01621
     879.00   3.943989     0.2256E+03   0.01276  -0.03191
     881.00   3.944976     0.2217E+03   0.00513  -0.01284
     883.00   3.945961     0.2245E+03   0.01064  -0.02659
     885.00   3.946943     0.2218E+03   0.00525  -0.01312
     887.00   3.947924     0.2133E+03  -0.01169   0.02924
     889.00   3.948902     0.2151E+03  -0.00802   0.02005
     891.00   3.949878     0.2175E+03  -0.00317   0.00792
     893.00   3.950851     0.2141E+03  -0.01002   0.02504
     895.00   3.951823     0.2149E+03  -0.00834   0.02085
     897.00   3.952792     0.2156E+03  -0.00692   0.01730
     899.00   3.953760     0.2161E+03  -0.00595   0.01486
     901.00   3.954725     0.2108E+03  -0.01680   0.04199
     903.00   3.955688     0.2184E+03  -0.00136   0.00340
     905.00   3.956649     0.2246E+03   0.01072  -0.02681
     907.00   3.957607     0.2244E+03   0.01035  -0.02588
     909.00   3.958564     0.2203E+03   0.00234  -0.00585
     911.00   3.959518     0.2225E+03   0.00680  -0.01699
     913.00   3.960471     0.2258E+03   0.01311  -0.03278
     915.00   3.961421     0.2244E+03   0.01044  -0.02611
     917.00   3.962369     0.2238E+03   0.00933  -0.02332
     919.00   3.963315     0.2254E+03   0.01242  -0.03104
     921.00   3.964260     0.2177E+03  -0.00274   0.00686
     923.00   3.965202     0.2157E+03  -0.00667   0.01668
     925.00   3.966142     0.2137E+03  -0.01081   0.02702
     927.00   3.967080     0.2161E+03  -0.00590   0.01474
     929.00   3.968016     0.2124E+03  -0.01352   0.03380
     931.00   3.968950     0.2136E+03  -0.01102   0.02754
     933.00   3.969882     0.2141E+03  -0.01003   0.02507
     935.00   3.970812     0.2137E+03  -0.01074   0.02686
     937.00   3.971740     0.2097E+03  -0.01907   0.04766
     939.00   3.972666     0.2136E+03  -0.01093   0.02732
     941.00   3.973590     0.2100E+03  -0.01843   0.04608
     943.00   3.974512     0.2142E+03  -0.00978   0.02445
     945.00   3.975432     0.2113E+03  -0.01567   0.03918
     947.00   3.976350     0.2156E+03  -0.00690   0.01725
     949.00   3.977266     0.2162E+03  -0.00575   0.01438
     951.00   3.978180     0.2122E+03  -0.01383   0.03458
     953.00   3.979093     0.2140E+03  -0.01011   0.02528
     955.00   3.980003     0.2107E+03  -0.01698   0.04246
     957.00   3.980912     0.2126E+03  -0.01311   0.03277
     959.00   3.981819     0.2156E+03  -0.00689   0.01723
     961.00   3.982723     0.2132E+03  -0.01192   0.02980
     963.00   3.983626     0.2143E+03  -0.00950   0.02375
     965.00   3.984527     0.2113E+03  -0.01578   0.03945
     967.00   3.985426     0.2115E+03  -0.01527   0.03817
     969.00   3.986324     0.2139E+03  -0.01036   0.02589
     971.00   3.987219     0.2114E+03  -0.01542   0.03855
     973.00   3.988113     0.2098E+03  -0.01888   0.04720
     975.00   3.989005     0.2092E+03  -0.02015   0.05037
     977.00   3.989895     0.2097E+03  -0.01899   0.04748
     979.00   3.990783     0.2074E+03  -0.02387   0.05968
     981.00   3.991669     0.2116E+03  -0.01519   0.03798
     983.00   3.992553     0.2099E+03  -0.01869   0.04672
     985.00   3.993436     0.2110E+03  -0.01631   0.04077
     987.00   3.994317     0.2095E+03  -0.01944   0.04861
     989.00   3.995196     0.2091E+03  -0.02020   0.05051
     991.00   3.996074     0.2087E+03  -0.02110   0.05275
     993.00   3.996949     0.2094E+03  -0.01972   0.04930
     995.00   3.997823     0.2096E+03  -0.01914   0.04784
     997.00   3.998695     0.2097E+03  -0.01904   0.04760
     999.00   3.999566     0.2090E+03  -0.02046   0.05114
    1003.00   4.001301     0.2083E+03  -0.02193   0.05483
    1008.00   4.003461     0.2065E+03  -0.02565   0.06413
    1013.00   4.005610     0.2081E+03  -0.02241   0.05603
    1018.00   4.007748     0.2058E+03  -0.02718   0.06795
    1023.00   4.009875     0.2060E+03  -0.02673   0.06681
    1028.00   4.011993     0.2061E+03  -0.02664   0.06660
    1033.00   4.014100     0.2036E+03  -0.03174   0.07935
    1038.00   4.016197     0.2025E+03  -0.03424   0.08560
    1043.00   4.018284     0.2031E+03  -0.03292   0.08229
    1048.00   4.020361     0.2016E+03  -0.03618   0.09045
    1053.00   4.022429     0.2007E+03  -0.03811   0.09526
    1058.00   4.024486     0.1981E+03  -0.04382   0.10954
    1063.00   4.026533     0.1971E+03  -0.04593   0.11482
    1068.00   4.028571     0.1950E+03  -0.05056   0.12640
    1073.00   4.030600     0.1954E+03  -0.04972   0.12431
    1078.00   4.032619     0.1939E+03  -0.05305   0.13262
    1083.00   4.034628     0.1913E+03  -0.05900   0.14749
    1088.00   4.036629     0.1902E+03  -0.06148   0.15369
    1093.00   4.038620     0.1894E+03  -0.06322   0.15805
    1098.00   4.040603     0.1867E+03  -0.06944   0.17360
    1103.00   4.042576     0.1861E+03  -0.07098   0.17746
    1108.00   4.044539     0.1839E+03  -0.07603   0.19007
    1113.00   4.046495     0.1835E+03  -0.07690   0.19225
    1118.00   4.048442     0.1824E+03  -0.07954   0.19885
    1123.00   4.050380     0.1824E+03  -0.07951   0.19877
    1128.00   4.052309     0.1811E+03  -0.08263   0.20658
    1133.00   4.054230     0.1809E+03  -0.08316   0.20790
    1138.00   4.056142     0.1800E+03  -0.08523   0.21307
    1143.00   4.058046     0.1788E+03  -0.08824   0.22060
    1148.00   4.059942     0.1801E+03  -0.08504   0.21261
    1153.00   4.061830     0.1799E+03  -0.08558   0.21396
    1158.00   4.063708     0.1783E+03  -0.08945   0.22362
    1163.00   4.065579     0.1765E+03  -0.09383   0.23457
    1168.00   4.067443     0.1764E+03  -0.09401   0.23502
    1173.00   4.069298     0.1770E+03  -0.09257   0.23144
    1178.00   4.071145     0.1746E+03  -0.09868   0.24669
    1183.00   4.072985     0.1733E+03  -0.10179   0.25446
    1188.00   4.074817     0.1715E+03  -0.10633   0.26582
    1193.00   4.076640     0.1735E+03  -0.10130   0.25326
    1198.00   4.078457     0.1692E+03  -0.11213   0.28032
    1203.00   4.080266     0.1715E+03  -0.10647   0.26617
    1208.00   4.082067     0.1701E+03  -0.10980   0.27450
    1213.00   4.083861     0.1702E+03  -0.10962   0.27405
    1218.00   4.085648     0.1703E+03  -0.10928   0.27321
    1223.00   4.087426     0.1694E+03  -0.11169   0.27923
    1228.00   4.089198     0.1684E+03  -0.11426   0.28565
    1233.00   4.090963     0.1675E+03  -0.11649   0.29121
    1238.00   4.092721     0.1671E+03  -0.11770   0.29425
    1243.00   4.094471     0.1653E+03  -0.12222   0.30556
    1248.00   4.096214     0.1653E+03  -0.12231   0.30578
    1253.00   4.097951     0.1641E+03  -0.12561   0.31402
    1258.00   4.099681     0.1635E+03  -0.12713   0.31781
    1263.00   4.101403     0.1629E+03  -0.12867   0.32166
    1268.00   4.103119     0.1618E+03  -0.13174   0.32936
    1273.00   4.104828     0.1617E+03  -0.13200   0.33001
    1278.00   4.106531     0.1617E+03  -0.13196   0.32989
    1283.00   4.108227     0.1575E+03  -0.14337   0.35842
    1288.00   4.109916     0.1593E+03  -0.13846   0.34614
    1293.00   4.111598     0.1579E+03  -0.14218   0.35546
    1298.00   4.113275     0.1589E+03  -0.13940   0.34851
    1303.00   4.114944     0.1573E+03  -0.14380   0.35950
    1308.00   4.116608     0.1576E+03  -0.14309   0.35772
    1313.00   4.118265     0.1552E+03  -0.14974   0.37434
    1318.00   4.119915     0.1547E+03  -0.15113   0.37782
    1323.00   4.121560     0.1547E+03  -0.15109   0.37772
    1328.00   4.123198     0.1527E+03  -0.15689   0.39223
    1333.00   4.124830     0.1530E+03  -0.15589   0.38972
    1338.00   4.126456     0.1518E+03  -0.15936   0.39839
    1343.00   4.128076     0.1520E+03  -0.15869   0.39671
    1348.00   4.129690     0.1510E+03  -0.16162   0.40406
    1353.00   4.131298     0.1503E+03  -0.16354   0.40886
    1358.00   4.132900     0.1484E+03  -0.16904   0.42260
    1363.00   4.134496     0.1481E+03  -0.17010   0.42524
    1368.00   4.136086     0.1487E+03  -0.16826   0.42065
    1373.00   4.137671     0.1492E+03  -0.16688   0.41719
    1378.00   4.139249     0.1489E+03  -0.16772   0.41931
    1383.00   4.140822     0.1488E+03  -0.16790   0.41974
    1388.00   4.142389     0.1475E+03  -0.17173   0.42933
    1393.00   4.143951     0.1388E+03  -0.19833   0.49582
    1398.00   4.145507     0.1395E+03  -0.19616   0.49041
    1403.00   4.147058     0.1383E+03  -0.19988   0.49970
    1408.00   4.148602     0.1391E+03  -0.19737   0.49344
    1413.00   4.150142     0.1379E+03  -0.20114   0.50286
    1418.00   4.151676     0.1387E+03  -0.19859   0.49648
    1423.00   4.153205     0.1376E+03  -0.20210   0.50525
    1428.00   4.154728     0.1363E+03  -0.20613   0.51532
    1433.00   4.156246     0.1386E+03  -0.19898   0.49744
    1438.00   4.157759     0.1392E+03  -0.19704   0.49259
    1443.00   4.159266     0.1368E+03  -0.20438   0.51096
    1448.00   4.160769     0.1390E+03  -0.19773   0.49432
    1453.00   4.162266     0.1379E+03  -0.20101   0.50252
    1457.00   4.163460     0.1386E+03  -0.19895   0.49737
    1462.00   4.164948     0.1337E+03  -0.21437   0.53594
    1468.00   4.166726     0.1344E+03  -0.21225   0.53062
    1473.00   4.168202     0.1335E+03  -0.21521   0.53803
    1478.00   4.169674     0.1344E+03  -0.21206   0.53014
    1483.00   4.171141     0.1350E+03  -0.21019   0.52547
    1488.00   4.172603     0.1343E+03  -0.21255   0.53137
    1493.00   4.174060     0.1370E+03  -0.20399   0.50998
    1498.00   4.175512     0.1363E+03  -0.20608   0.51519
    1503.00   4.176959     0.1352E+03  -0.20975   0.52438
    1508.00   4.178401     0.1355E+03  -0.20877   0.52192
    1513.00   4.179839     0.1375E+03  -0.20232   0.50580
    1518.00   4.181272     0.1380E+03  -0.20080   0.50199
    1523.00   4.182700     0.1379E+03  -0.20103   0.50256
    1528.00   4.184123     0.1388E+03  -0.19831   0.49578
    1533.00   4.185542     0.1384E+03  -0.19953   0.49883
    1538.00   4.186956     0.1362E+03  -0.20659   0.51647
    1543.00   4.188366     0.1373E+03  -0.20285   0.50713
    1548.00   4.189771     0.1377E+03  -0.20169   0.50422
    1553.00   4.191172     0.1370E+03  -0.20395   0.50987
    1558.00   4.192567     0.1331E+03  -0.21651   0.54127
    1563.00   4.193959     0.1348E+03  -0.21093   0.52733
    1568.00   4.195346     0.1343E+03  -0.21246   0.53114
    1573.00   4.196729     0.1366E+03  -0.20505   0.51263
    1578.00   4.198107     0.1257E+03  -0.24125   0.60312
    1583.00   4.199481     0.1299E+03  -0.22713   0.56783
    1588.00   4.200850     0.1299E+03  -0.22687   0.56718
    1593.00   4.202216     0.1333E+03  -0.21566   0.53915
    1598.00   4.203577     0.1364E+03  -0.20568   0.51419
    1605.00   4.205475     0.1300E+03  -0.22682   0.56705
    1615.00   4.208173     0.1333E+03  -0.21580   0.53949
    1625.00   4.210854     0.1284E+03  -0.23199   0.57997
    1635.00   4.213518     0.1322E+03  -0.21943   0.54858
    1645.00   4.216166     0.1272E+03  -0.23603   0.59008
    1655.00   4.218798     0.1292E+03  -0.22947   0.57368
    1665.00   4.221415     0.1254E+03  -0.24222   0.60554
    1675.00   4.224015     0.1258E+03  -0.24089   0.60224
    1685.00   4.226600     0.1254E+03  -0.24216   0.60540
    1695.00   4.229170     0.1231E+03  -0.25042   0.62604
    1705.00   4.231725     0.1211E+03  -0.25746   0.64366
    1715.00   4.234264     0.1188E+03  -0.26579   0.66448
    1725.00   4.236789     0.1164E+03  -0.27449   0.68622
    1735.00   4.239300     0.1132E+03  -0.28674   0.71684
    1745.00   4.241796     0.1119E+03  -0.29192   0.72980
    1755.00   4.244277     0.1105E+03  -0.29737   0.74341
    1765.00   4.246745     0.1080E+03  -0.30704   0.76760
    1775.00   4.249198     0.1057E+03  -0.31647   0.79117
    1785.00   4.251638     0.1044E+03  -0.32196   0.80490
    1795.00   4.254065     0.1021E+03  -0.33160   0.82901
    1805.00   4.256477     0.9996E+02  -0.34079   0.85197
    1815.00   4.258877     0.9814E+02  -0.34877   0.87193
    1825.00   4.261263     0.9664E+02  -0.35544   0.88861
    1835.00   4.263636     0.9512E+02  -0.36236   0.90590
    1845.00   4.265996     0.9322E+02  -0.37110   0.92774
    1855.00   4.268344     0.9226E+02  -0.37562   0.93904
    1865.00   4.270679     0.9009E+02  -0.38592   0.96480
    1875.00   4.273001     0.8819E+02  -0.39522   0.98806
    1885.00   4.275311     0.8736E+02  -0.39931   0.99826
    1895.00   4.277609     0.8443E+02  -0.41412   1.03531
    1905.00   4.279895     0.8440E+02  -0.41430   1.03575
    1915.00   4.282169     0.8261E+02  -0.42361   1.05902
    1925.00   4.284431     0.8117E+02  -0.43125   1.07812
    1935.00   4.286681     0.7901E+02  -0.44296   1.10739
    1945.00   4.288919     0.7708E+02  -0.45369   1.13422
    1955.00   4.291147     0.7645E+02  -0.45722   1.14306
    1965.00   4.293363     0.7493E+02  -0.46597   1.16492
    1975.00   4.295567     0.7314E+02  -0.47647   1.19117
    1985.00   4.297760     0.7206E+02  -0.48295   1.20738
    1995.00   4.299943     0.7104E+02  -0.48912   1.22280
    2005.00   4.302114     0.7039E+02  -0.49314   1.23284
    2015.00   4.304275     0.6936E+02  -0.49950   1.24875
    2025.00   4.306425     0.6773E+02  -0.50984   1.27460
    2035.00   4.308564     0.6673E+02  -0.51631   1.29077
    2045.00   4.310693     0.6627E+02  -0.51932   1.29830
    2055.00   4.312812     0.6513E+02  -0.52686   1.31716
    2065.00   4.314920     0.6400E+02  -0.53443   1.33609
    2075.00   4.317018     0.6320E+02  -0.53993   1.34984
    2085.00   4.319106     0.6221E+02  -0.54675   1.36687
    2095.00   4.321184     0.6108E+02  -0.55474   1.38685
    2105.00   4.323252     0.6059E+02  -0.55825   1.39562
    2115.00   4.325311     0.5954E+02  -0.56584   1.41460
    2125.00   4.327359     0.5862E+02  -0.57260   1.43151
    2135.00   4.329398     0.5800E+02  -0.57722   1.44306
    2145.00   4.331428     0.5708E+02  -0.58415   1.46038
    2155.00   4.333447     0.5619E+02  -0.59099   1.47747
    2165.00   4.335458     0.5508E+02  -0.59960   1.49900
    2175.00   4.337460     0.5432E+02  -0.60566   1.51414
    2185.00   4.339452     0.5363E+02  -0.61123   1.52807
    2195.00   4.341434     0.5292E+02  -0.61696   1.54241
    2205.00   4.343409     0.5171E+02  -0.62701   1.56753
    2215.00   4.345374     0.5142E+02  -0.62944   1.57361
    2225.00   4.347330     0.5027E+02  -0.63932   1.59829
    2235.00   4.349277     0.4960E+02  -0.64513   1.61283
    2245.00   4.351216     0.4887E+02  -0.65154   1.62884
    2255.00   4.353147     0.4823E+02  -0.65727   1.64316
    2265.00   4.355068     0.4727E+02  -0.66606   1.66516
    2275.00   4.356981     0.4687E+02  -0.66976   1.67440
    2285.00   4.358886     0.4592E+02  -0.67858   1.69646
    2295.00   4.360783     0.3695E+02  -0.77297   1.93243
    2305.00   4.362671     0.4094E+02  -0.72844   1.82111
    2315.00   4.364551     0.4080E+02  -0.72997   1.82492
    2325.00   4.366423     0.3430E+02  -0.80526   2.01316
    2335.00   4.368287     0.3757E+02  -0.76578   1.91445
    2345.00   4.370143     0.3461E+02  -0.80142   2.00356
    2355.00   4.371991     0.3184E+02  -0.83762   2.09406
    2365.00   4.373831     0.3469E+02  -0.80047   2.00119
    2375.00   4.375664     0.3241E+02  -0.82990   2.07476
    2385.00   4.377488     0.3003E+02  -0.86312   2.15779
    2395.00   4.379306     0.3226E+02  -0.83197   2.07992
    2405.00   4.381115     0.3095E+02  -0.84991   2.12477
    2415.00   4.382917     0.2844E+02  -0.88664   2.21659
    2425.00   4.384712     0.3030E+02  -0.85919   2.14797
    2435.00   4.386499     0.2889E+02  -0.87991   2.19976
    2445.00   4.388279     0.2899E+02  -0.87840   2.19601
    2455.00   4.390052     0.2801E+02  -0.89325   2.23312
    2465.00   4.391817     0.2802E+02  -0.89319   2.23297
    2475.00   4.393575     0.2729E+02  -0.90464   2.26159
    2485.00   4.395327     0.2383E+02  -0.96354   2.40884
    2495.00   4.397071     0.2291E+02  -0.98067   2.45167
    2505.00   4.398808     0.2334E+02  -0.97256   2.43141
    2515.00   4.400538     0.2227E+02  -0.99291   2.48227
    2525.00   4.402262     0.2290E+02  -0.98069   2.45172
    2535.00   4.403978     0.2302E+02  -0.97856   2.44641
    2545.00   4.405688     0.2283E+02  -0.98208   2.45521
    2555.00   4.407391     0.2286E+02  -0.98154   2.45385
    2565.00   4.409087     0.2311E+02  -0.97685   2.44214
    2575.00   4.410777     0.2334E+02  -0.97250   2.43124
    2585.00   4.412460     0.2278E+02  -0.98309   2.45773
    2595.00   4.414137     0.2289E+02  -0.98088   2.45220
    2605.00   4.415808     0.2292E+02  -0.98034   2.45085
    2615.00   4.417472     0.2256E+02  -0.98721   2.46804
    2625.00   4.419129     0.2223E+02  -0.99359   2.48398
    2635.00   4.420781     0.2226E+02  -0.99308   2.48269
    2645.00   4.422426     0.2207E+02  -0.99673   2.49182
    2655.00   4.424065     0.2180E+02  -1.00212   2.50531
    2665.00   4.425697     0.2147E+02  -1.00873   2.52183
    2675.00   4.427324     0.2167E+02  -1.00477   2.51191
    2685.00   4.428945     0.2145E+02  -1.00929   2.52321
    2695.00   4.430559     0.2106E+02  -1.01719   2.54298
    2705.00   4.432167     0.2105E+02  -1.01746   2.54364
    2715.00   4.433770     0.2086E+02  -1.02135   2.55337
    2725.00   4.435367     0.2074E+02  -1.02389   2.55972
    2735.00   4.436957     0.2039E+02  -1.03115   2.57787
    2745.00   4.438542     0.2035E+02  -1.03206   2.58015
    2755.00   4.440122     0.2022E+02  -1.03487   2.58718
    2765.00   4.441695     0.1997E+02  -1.04028   2.60070
    2775.00   4.443263     0.1971E+02  -1.04597   2.61492
    2785.00   4.444825     0.1963E+02  -1.04763   2.61908
    2795.00   4.446382     0.1954E+02  -1.04966   2.62415
    2805.00   4.447933     0.1934E+02  -1.05422   2.63555
    2815.00   4.449478     0.1909E+02  -1.05984   2.64961
    2825.00   4.451018     0.1895E+02  -1.06298   2.65744
    2835.00   4.452553     0.1884E+02  -1.06564   2.66409
    2845.00   4.454082     0.1862E+02  -1.07073   2.67682
    2855.00   4.455606     0.1843E+02  -1.07506   2.68764
    2865.00   4.457125     0.1826E+02  -1.07906   2.69764
    2875.00   4.458638     0.1809E+02  -1.08329   2.70822
    2885.00   4.460146     0.1793E+02  -1.08709   2.71772
    2895.00   4.461648     0.1776E+02  -1.09116   2.72789
    2905.00   4.463146     0.1758E+02  -1.09564   2.73910
    2915.00   4.464639     0.1743E+02  -1.09938   2.74845
    2925.00   4.466126     0.1717E+02  -1.10596   2.76491
    2935.00   4.467608     0.1710E+02  -1.10769   2.76924
    2945.00   4.469085     0.1689E+02  -1.11287   2.78217
    2955.00   4.470557     0.1674E+02  -1.11687   2.79217
    2965.00   4.472025     0.1661E+02  -1.12026   2.80066
    2975.00   4.473487     0.1645E+02  -1.12445   2.81113
    2985.00   4.474944     0.1626E+02  -1.12937   2.82341
    2995.00   4.476397     0.1610E+02  -1.13391   2.83478
    3005.00   4.477844     0.1595E+02  -1.13793   2.84483
    3015.00   4.479287     0.1584E+02  -1.14091   2.85226
    3025.00   4.480725     0.1567E+02  -1.14553   2.86383
    3035.00   4.482159     0.1550E+02  -1.15030   2.87576
    3045.00   4.483587     0.1542E+02  -1.15265   2.88162
    3055.00   4.485011     0.1527E+02  -1.15689   2.89222
    3065.00   4.486430     0.1513E+02  -1.16090   2.90225
    3075.00   4.487845     0.1502E+02  -1.16406   2.91016
    3085.00   4.489255     0.1484E+02  -1.16915   2.92288
    3095.00   4.490661     0.1473E+02  -1.17247   2.93118
    3105.00   4.492062     0.1463E+02  -1.17550   2.93876
    3115.00   4.493458     0.1442E+02  -1.18156   2.95391
    3125.00   4.494850     0.1434E+02  -1.18409   2.96022
    3135.00   4.496238     0.1421E+02  -1.18802   2.97004
    3145.00   4.497621     0.1407E+02  -1.19221   2.98052
    3155.00   4.499000     0.1392E+02  -1.19686   2.99216
    3165.00   4.500374     0.1378E+02  -1.20135   3.00337
    3175.00   4.501744     0.1368E+02  -1.20461   3.01153
    3185.00   4.503109     0.1355E+02  -1.20882   3.02206
    3195.00   4.504471     0.1343E+02  -1.21253   3.03133
    3210.00   4.506505     0.1323E+02  -1.21921   3.04803
    3230.00   4.509202     0.1296E+02  -1.22794   3.06984
    3250.00   4.511883     0.1271E+02  -1.23646   3.09115
    3270.00   4.514548     0.1245E+02  -1.24536   3.11340
    3290.00   4.517196     0.1219E+02  -1.25473   3.13682
    3310.00   4.519828     0.1196E+02  -1.26303   3.15757
    3330.00   4.522444     0.1171E+02  -1.27221   3.18052
    3350.00   4.525045     0.1149E+02  -1.28026   3.20066
    3370.00   4.527630     0.1125E+02  -1.28950   3.22375
    3390.00   4.530200     0.1101E+02  -1.29889   3.24723
    3410.00   4.532754     0.1077E+02  -1.30830   3.27075
    3430.00   4.535294     0.1058E+02  -1.31628   3.29069
    3450.00   4.537819     0.1037E+02  -1.32497   3.31242
    3470.00   4.540329     0.1015E+02  -1.33418   3.33544
    3490.00   4.542826     0.9945E+01  -1.34300   3.35750
    3510.00   4.545307     0.9750E+01  -1.35161   3.37902
    3530.00   4.547775     0.9537E+01  -1.36121   3.40301
    3550.00   4.550228     0.9356E+01  -1.36952   3.42379
    3570.00   4.552669     0.9164E+01  -1.37854   3.44636
    3590.00   4.555095     0.8981E+01  -1.38729   3.46822
    3610.00   4.557508     0.8815E+01  -1.39538   3.48844
    3630.00   4.559907     0.8638E+01  -1.40422   3.51056
    3650.00   4.562293     0.8451E+01  -1.41372   3.53430
    3670.00   4.564666     0.8279E+01  -1.42263   3.55656
    3690.00   4.567026     0.8093E+01  -1.43251   3.58128
    3710.00   4.569374     0.7926E+01  -1.44158   3.60394
    3730.00   4.571709     0.7794E+01  -1.44885   3.62212
    3750.00   4.574031     0.7611E+01  -1.45919   3.64796
    3770.00   4.576342     0.7495E+01  -1.46586   3.66466
    3790.00   4.578639     0.7345E+01  -1.47462   3.68655
    3810.00   4.580925     0.7211E+01  -1.48265   3.70661
    3830.00   4.583199     0.7082E+01  -1.49046   3.72615
    3850.00   4.585461     0.6950E+01  -1.49866   3.74666
    3870.00   4.587711     0.6798E+01  -1.50822   3.77055
    3890.00   4.589950     0.6677E+01  -1.51606   3.79015
    3910.00   4.592176     0.6557E+01  -1.52392   3.80980
    3930.00   4.594393     0.6433E+01  -1.53219   3.83046
    3950.00   4.596597     0.6293E+01  -1.54175   3.85436
    3970.00   4.598790     0.6182E+01  -1.54947   3.87367
    3990.00   4.600973     0.6045E+01  -1.55924   3.89809
    4010.00   4.603145     0.5947E+01  -1.56629   3.91572
    4030.00   4.605305     0.5849E+01  -1.57356   3.93391
    4050.00   4.607455     0.5730E+01  -1.58249   3.95623
    4070.00   4.609594     0.5632E+01  -1.58999   3.97498
    4090.00   4.611723     0.5530E+01  -1.59786   3.99466
    4110.00   4.613842     0.5436E+01  -1.60535   4.01337
    4130.00   4.615950     0.5346E+01  -1.61256   4.03140
    4150.00   4.618048     0.5249E+01  -1.62055   4.05138
    4170.00   4.620136     0.5158E+01  -1.62810   4.07025
    4190.00   4.622214     0.5066E+01  -1.63598   4.08994
    4210.00   4.624282     0.4972E+01  -1.64407   4.11019
    4230.00   4.626340     0.4907E+01  -1.64980   4.12449
    4250.00   4.628389     0.4814E+01  -1.65809   4.14523
    4270.00   4.630428     0.4741E+01  -1.66474   4.16185
    4290.00   4.632457     0.4531E+01  -1.68442   4.21106
    4310.00   4.634478     0.4315E+01  -1.70566   4.26415
    4330.00   4.636488     0.4298E+01  -1.70734   4.26836
    4350.00   4.638489     0.4122E+01  -1.72553   4.31383
    4370.00   4.640481     0.4013E+01  -1.73713   4.34284
    4390.00   4.642465     0.3930E+01  -1.74620   4.36550
    4410.00   4.644439     0.3786E+01  -1.76244   4.40610
    4430.00   4.646404     0.3729E+01  -1.76897   4.42242
    4450.00   4.648360     0.3662E+01  -1.77687   4.44218
    4470.00   4.650308     0.3543E+01  -1.79120   4.47800
    4490.00   4.652246     0.3532E+01  -1.79261   4.48153
    4510.00   4.654177     0.3447E+01  -1.80318   4.50796
    4530.00   4.656098     0.3363E+01  -1.81394   4.53485
    4550.00   4.658011     0.3341E+01  -1.81671   4.54176
    4570.00   4.659916     0.3299E+01  -1.82228   4.55569
    4590.00   4.661813     0.3202E+01  -1.83524   4.58811
    4610.00   4.663701     0.3199E+01  -1.83559   4.58897
    4630.00   4.665581     0.3138E+01  -1.84396   4.60989
    4650.00   4.667453     0.3103E+01  -1.84879   4.62196
    4670.00   4.669317     0.3080E+01  -1.85201   4.63002
    4690.00   4.671173     0.3023E+01  -1.86015   4.65039
    4710.00   4.673021     0.2973E+01  -1.86747   4.66866
    4730.00   4.674861     0.2969E+01  -1.86802   4.67005
    4750.00   4.676694     0.2906E+01  -1.87735   4.69337
    4770.00   4.678518     0.2867E+01  -1.88312   4.70780
    4790.00   4.680336     0.2838E+01  -1.88757   4.71891
    4810.00   4.682145     0.2773E+01  -1.89765   4.74414
    4830.00   4.683947     0.2773E+01  -1.89759   4.74398
    4850.00   4.685741     0.2724E+01  -1.90544   4.76359
    4870.00   4.687529     0.2674E+01  -1.91352   4.78380
    4890.00   4.689309     0.2638E+01  -1.91942   4.79855
    4910.00   4.691082     0.2605E+01  -1.92488   4.81220
    4930.00   4.692847     0.2565E+01  -1.93159   4.82898
    4950.00   4.694605     0.2523E+01  -1.93875   4.84688
    4970.00   4.696356     0.2502E+01  -1.94228   4.85571
    4990.00   4.698101     0.2465E+01  -1.94884   4.87210
    5010.00   4.699838     0.2436E+01  -1.95402   4.88506
    5030.00   4.701568     0.2403E+01  -1.95980   4.89950
    5050.00   4.703291     0.2355E+01  -1.96857   4.92143
    5070.00   4.705008     0.2335E+01  -1.97238   4.93095
    5090.00   4.706717     0.2305E+01  -1.97796   4.94491
    5110.00   4.708421     0.2266E+01  -1.98545   4.96363
    5130.00   4.710117     0.2248E+01  -1.98885   4.97213
    5150.00   4.711807     0.2210E+01  -1.99630   4.99075
    5170.00   4.713490     0.2197E+01  -1.99875   4.99687
    5190.00   4.715167     0.2159E+01  -2.00641   5.01603
    5210.00   4.716838     0.2135E+01  -2.01124   5.02809
    5230.00   4.718502     0.2100E+01  -2.01848   5.04621
    5250.00   4.720160     0.2081E+01  -2.02230   5.05575
    5270.00   4.721810     0.2068E+01  -2.02498   5.06245
    5290.00   4.723455     0.2024E+01  -2.03434   5.08585
    5310.00   4.725095     0.1998E+01  -2.03995   5.09987
    5330.00   4.726727     0.1980E+01  -2.04400   5.10999
    5350.00   4.728354     0.1956E+01  -2.04928   5.12320
    5370.00   4.729974     0.1934E+01  -2.05424   5.13559
    5390.00   4.731589     0.1912E+01  -2.05924   5.14810
    5410.00   4.733197     0.1889E+01  -2.06448   5.16121
    5430.00   4.734800     0.1856E+01  -2.07206   5.18014
    5450.00   4.736397     0.1845E+01  -2.07467   5.18667
    5470.00   4.737988     0.1815E+01  -2.08167   5.20417
    5490.00   4.739573     0.1796E+01  -2.08626   5.21564
    5510.00   4.741152     0.1772E+01  -2.09207   5.23016
    5530.00   4.742725     0.1771E+01  -2.09236   5.23089
    5550.00   4.744293     0.1729E+01  -2.10287   5.25717
    5570.00   4.745855     0.1722E+01  -2.10460   5.26151
    5590.00   4.747412     0.1694E+01  -2.11165   5.27913
    5610.00   4.748963     0.1680E+01  -2.11525   5.28812
    5630.00   4.750508     0.1651E+01  -2.12278   5.30696
    5650.00   4.752048     0.1641E+01  -2.12553   5.31384
    5670.00   4.753583     0.1621E+01  -2.13084   5.32709
    5690.00   4.755112     0.1594E+01  -2.13819   5.34547
    5710.00   4.756636     0.1585E+01  -2.14058   5.35146
    5730.00   4.758155     0.1565E+01  -2.14605   5.36512
    5750.00   4.759668     0.1547E+01  -2.15124   5.37811
    5770.00   4.761176     0.1526E+01  -2.15694   5.39235
    5790.00   4.762679     0.1514E+01  -2.16043   5.40108
    5810.00   4.764176     0.1492E+01  -2.16694   5.41736
    5830.00   4.765669     0.1476E+01  -2.17166   5.42916
    5850.00   4.767156     0.1459E+01  -2.17657   5.44144
    5870.00   4.768638     0.1437E+01  -2.18309   5.45773
    5890.00   4.770115     0.1422E+01  -2.18776   5.46940
    5910.00   4.771587     0.1406E+01  -2.19249   5.48122
    5930.00   4.773055     0.1392E+01  -2.19711   5.49279
    5950.00   4.774517     0.1372E+01  -2.20312   5.50780
    5970.00   4.775974     0.1360E+01  -2.20702   5.51756
    5990.00   4.777427     0.1344E+01  -2.21212   5.53031
    6010.00   4.778874     0.1329E+01  -2.21721   5.54302
    6030.00   4.780317     0.1313E+01  -2.22234   5.55585
    6050.00   4.781755     0.1295E+01  -2.22842   5.57105
    6070.00   4.783189     0.1280E+01  -2.23329   5.58321
    6090.00   4.784617     0.1265E+01  -2.23844   5.59609
    6110.00   4.786041     0.1249E+01  -2.24396   5.60989
    6130.00   4.787460     0.1237E+01  -2.24823   5.62058
    6150.00   4.788875     0.1224E+01  -2.25291   5.63229
    6170.00   4.790285     0.1211E+01  -2.25732   5.64329
    6190.00   4.791691     0.1197E+01  -2.26252   5.65629
    6210.00   4.793092     0.1184E+01  -2.26711   5.66778
    6230.00   4.794488     0.1169E+01  -2.27287   5.68218
    6250.00   4.795880     0.1154E+01  -2.27850   5.69625
    6270.00   4.797267     0.1141E+01  -2.28345   5.70862
    6290.00   4.798651     0.1129E+01  -2.28805   5.72012
    6310.00   4.800029     0.1115E+01  -2.29328   5.73319
    6330.00   4.801404     0.1105E+01  -2.29721   5.74303
    6350.00   4.802773     0.1091E+01  -2.30272   5.75679
    6370.00   4.804139     0.1081E+01  -2.30673   5.76683
    6390.00   4.805501     0.1067E+01  -2.31241   5.78102
    6420.00   4.807535     0.1050E+01  -2.31963   5.79907
    6460.00   4.810232     0.1025E+01  -2.32976   5.82440
    6500.00   4.812913     0.1003E+01  -2.33942   5.84855
    6540.00   4.815578     0.9805E+00  -2.34919   5.87297
    6580.00   4.818226     0.9596E+00  -2.35853   5.89633
    6620.00   4.820858     0.9380E+00  -2.36844   5.92109
    6660.00   4.823474     0.9176E+00  -2.37797   5.94492
    6700.00   4.826075     0.8978E+00  -2.38744   5.96861
    6740.00   4.828660     0.8778E+00  -2.39723   5.99308
    6780.00   4.831230     0.8589E+00  -2.40665   6.01663
    6820.00   4.833784     0.8403E+00  -2.41619   6.04048
    6860.00   4.836324     0.8226E+00  -2.42540   6.06351
    6900.00   4.838849     0.8048E+00  -2.43493   6.08733
    6940.00   4.841359     0.7877E+00  -2.44424   6.11059
    6980.00   4.843855     0.7711E+00  -2.45348   6.13371
    7020.00   4.846337     0.7545E+00  -2.46294   6.15736
    7060.00   4.848804     0.7390E+00  -2.47196   6.17990
    7100.00   4.851258     0.7235E+00  -2.48119   6.20296
    7140.00   4.853698     0.7085E+00  -2.49025   6.22562
    7180.00   4.856124     0.6937E+00  -2.49942   6.24855
    7220.00   4.858537     0.6795E+00  -2.50842   6.27106
    7260.00   4.860937     0.6654E+00  -2.51751   6.29377
    7300.00   4.863323     0.6519E+00  -2.52642   6.31605
    7340.00   4.865696     0.6385E+00  -2.53546   6.33865
    7380.00   4.868056     0.6257E+00  -2.54424   6.36061
    7420.00   4.870404     0.6127E+00  -2.55340   6.38349
    7460.00   4.872739     0.6003E+00  -2.56227   6.40568
    7500.00   4.875061     0.5884E+00  -2.57091   6.42729
    7540.00   4.877371     0.5766E+00  -2.57972   6.44930
    7580.00   4.879669     0.5656E+00  -2.58809   6.47023
    7620.00   4.881955     0.5545E+00  -2.59674   6.49184
    7660.00   4.884229     0.5436E+00  -2.60533   6.51332
    7700.00   4.886491     0.5329E+00  -2.61398   6.53494
    7740.00   4.888741     0.5226E+00  -2.62242   6.55605
    7780.00   4.890980     0.5126E+00  -2.63087   6.57718
    7820.00   4.893207     0.5027E+00  -2.63934   6.59834
    7860.00   4.895422     0.4931E+00  -2.64772   6.61929
    7900.00   4.897627     0.4836E+00  -2.65609   6.64022
    7940.00   4.899820     0.4745E+00  -2.66441   6.66104
    7980.00   4.902003     0.4655E+00  -2.67267   6.68166
    8020.00   4.904174     0.4566E+00  -2.68108   6.70269
    8060.00   4.906335     0.4481E+00  -2.68928   6.72320
    8100.00   4.908485     0.4398E+00  -2.69733   6.74333
    8140.00   4.910625     0.4316E+00  -2.70555   6.76388
    8180.00   4.912753     0.4237E+00  -2.71354   6.78384
    8220.00   4.914872     0.4160E+00  -2.72156   6.80391
    8260.00   4.916980     0.4083E+00  -2.72962   6.82404
    8300.00   4.919078     0.4009E+00  -2.73759   6.84397
    8340.00   4.921166     0.3935E+00  -2.74567   6.86418
    8380.00   4.923244     0.3864E+00  -2.75359   6.88399
    8420.00   4.925312     0.3796E+00  -2.76133   6.90332
    8460.00   4.927370     0.3727E+00  -2.76922   6.92306
    8500.00   4.929419     0.3661E+00  -2.77701   6.94252
    8540.00   4.931458     0.3596E+00  -2.78475   6.96189
    8580.00   4.933487     0.3533E+00  -2.79246   6.98115
    8620.00   4.935507     0.3471E+00  -2.80015   7.00037
    8660.00   4.937518     0.3411E+00  -2.80777   7.01943
    8700.00   4.939519     0.3351E+00  -2.81542   7.03855
    8740.00   4.941511     0.3293E+00  -2.82302   7.05756
    8780.00   4.943495     0.3236E+00  -2.83061   7.07652
    8820.00   4.945469     0.3180E+00  -2.83823   7.09557
    8860.00   4.947433     0.3125E+00  -2.84570   7.11426
    8900.00   4.949390     0.3072E+00  -2.85322   7.13304
    8940.00   4.951338     0.3020E+00  -2.86057   7.15141
    8980.00   4.953277     0.2968E+00  -2.86814   7.17035
    9020.00   4.955207     0.2919E+00  -2.87535   7.18837
    9060.00   4.957129     0.2871E+00  -2.88264   7.20660
    9100.00   4.959042     0.2821E+00  -2.89023   7.22557
    9140.00   4.960946     0.2775E+00  -2.89734   7.24335
    9180.00   4.962843     0.2729E+00  -2.90458   7.26145
    9220.00   4.964731     0.2685E+00  -2.91169   7.27922
    9260.00   4.966611     0.2641E+00  -2.91890   7.29726
    9300.00   4.968483     0.2598E+00  -2.92605   7.31513
    9340.00   4.970347     0.2555E+00  -2.93321   7.33302
    9380.00   4.972203     0.2514E+00  -2.94028   7.35071
    9420.00   4.974051     0.2473E+00  -2.94736   7.36841
    9460.00   4.975891     0.2433E+00  -2.95445   7.38614
    9500.00   4.977724     0.2394E+00  -2.96146   7.40366
    9540.00   4.979548     0.2356E+00  -2.96844   7.42109
    9580.00   4.981365     0.2319E+00  -2.97538   7.43845
    9620.00   4.983175     0.2282E+00  -2.98233   7.45583
    9660.00   4.984977     0.2246E+00  -2.98921   7.47303
    9700.00   4.986772     0.2211E+00  -2.99608   7.49020
    9740.00   4.988559     0.2175E+00  -3.00320   7.50800
    9780.00   4.990339     0.2142E+00  -3.00985   7.52462
    9820.00   4.992111     0.2109E+00  -3.01657   7.54144
    9860.00   4.993877     0.2076E+00  -3.02335   7.55837
    9900.00   4.995635     0.2044E+00  -3.03007   7.57517
    9940.00   4.997386     0.2013E+00  -3.03684   7.59209
    9980.00   4.999130     0.1982E+00  -3.04352   7.60880
   10020.00   5.000868     0.1952E+00  -3.05018   7.62546
   20000.00   5.301030     0.1329E-01  -4.21697  10.54242
   40000.00   5.602060     0.8604E-03  -5.40591  13.51477
   60000.00   5.778151     0.1715E-03  -6.10631  15.26578
   80000.00   5.903090     0.5444E-04  -6.60470  16.51174
  100000.00   6.000000     0.2232E-04  -6.99189  17.47973
  120000.00   6.079181     0.1077E-04  -7.30860  18.27150
  140000.00   6.146128     0.5808E-05  -7.57656  18.94141
  160000.00   6.204120     0.3403E-05  -7.80880  19.52200
