age =   11.0    [Fe/H] =    0.25

wavele(nm) log wave(A)   Hlam       log(Hlam/Hlam(V))  Hlam(mag(V)) 
      90.50   2.956649     0.6413E-14 -16.32194  40.80486
      91.50   2.961421     0.1892E-12 -14.85201  37.13002
      92.50   2.966142     0.2114E-11 -13.80380  34.50949
      93.50   2.970812     0.2997E-11 -13.65231  34.13078
      94.50   2.975432     0.4536E-11 -13.47231  33.68077
      95.50   2.980003     0.6920E-11 -13.28885  33.22212
      96.50   2.984527     0.1068E-10 -13.10040  32.75101
      97.50   2.989005     0.1468E-10 -12.96220  32.40550
      98.50   2.993436     0.2105E-10 -12.80572  32.01429
      99.50   2.997823     0.2924E-10 -12.66304  31.65760
     100.50   3.002166     0.4446E-10 -12.48098  31.20245
     101.50   3.006466     0.6241E-10 -12.33372  30.83430
     102.50   3.010724     0.7488E-10 -12.25465  30.63662
     103.50   3.014940     0.1230E-09 -12.03923  30.09809
     104.50   3.019116     0.1733E-09 -11.89017  29.72542
     105.50   3.023252     0.2225E-09 -11.78160  29.45399
     106.50   3.027350     0.3107E-09 -11.63671  29.09178
     107.50   3.031409     0.4256E-09 -11.49993  28.74984
     108.50   3.035430     0.5775E-09 -11.36739  28.41849
     109.50   3.039414     0.7257E-09 -11.26825  28.17062
     110.50   3.043362     0.1318E-08 -11.00919  27.52297
     111.50   3.047275     0.1889E-08 -10.85267  27.13166
     112.50   3.051152     0.2661E-08 -10.70391  26.75977
     113.50   3.054996     0.3848E-08 -10.54369  26.35923
     114.50   3.058805     0.5158E-08 -10.41651  26.04126
     115.50   3.062582     0.6408E-08 -10.32223  25.80559
     116.50   3.066326     0.8642E-08 -10.19238  25.48094
     117.50   3.070038     0.1130E-07 -10.07595  25.18987
     118.50   3.073718     0.1351E-07  -9.99834  24.99585
     119.50   3.077368     0.1443E-07  -9.96975  24.92436
     120.50   3.080987     0.1757E-07  -9.88415  24.71038
     121.50   3.084576     0.9455E-08 -10.15333  25.38334
     122.50   3.088136     0.2598E-07  -9.71434  24.28585
     123.50   3.091667     0.3929E-07  -9.53471  23.83677
     124.50   3.095169     0.4955E-07  -9.43391  23.58478
     125.50   3.098644     0.5936E-07  -9.35545  23.38864
     126.50   3.102091     0.6913E-07  -9.28934  23.22336
     127.50   3.105510     0.8417E-07  -9.20383  23.00959
     128.50   3.108903     0.9541E-07  -9.14938  22.87344
     129.50   3.112270     0.1167E-06  -9.06183  22.65458
     130.50   3.115611     0.1311E-06  -9.01122  22.52805
     131.50   3.118926     0.1639E-06  -8.91437  22.28592
     132.50   3.122216     0.1784E-06  -8.87748  22.19370
     133.50   3.125481     0.2050E-06  -8.81726  22.04315
     134.50   3.128722     0.2490E-06  -8.73277  21.83193
     135.50   3.131939     0.3019E-06  -8.64915  21.62286
     136.50   3.135133     0.3364E-06  -8.60207  21.50516
     137.50   3.138303     0.3811E-06  -8.54794  21.36984
     138.50   3.141450     0.4332E-06  -8.49226  21.23064
     139.50   3.144574     0.5025E-06  -8.42786  21.06965
     140.50   3.147676     0.6210E-06  -8.33590  20.83976
     141.50   3.150756     0.7280E-06  -8.26684  20.66710
     142.50   3.153815     0.8611E-06  -8.19393  20.48482
     143.50   3.156852     0.1041E-05  -8.11145  20.27863
     144.20   3.158965     0.1293E-05  -8.01733  20.04333
     144.70   3.160469     0.1240E-05  -8.03556  20.08890
     145.50   3.162863     0.1454E-05  -7.96628  19.91570
     146.50   3.165838     0.1849E-05  -7.86212  19.65529
     147.50   3.168792     0.2148E-05  -7.79700  19.49251
     148.50   3.171726     0.2390E-05  -7.75051  19.37628
     149.50   3.174641     0.3057E-05  -7.64374  19.10935
     150.50   3.177536     0.3736E-05  -7.55658  18.89145
     151.20   3.179552     0.3200E-05  -7.62389  19.05972
     151.70   3.180986     0.3894E-05  -7.53854  18.84634
     152.50   3.183270     0.8744E-05  -7.18727  17.96816
     153.50   3.186108     0.1472E-04  -6.96109  17.40272
     154.50   3.188928     0.1237E-04  -7.03677  17.59192
     155.50   3.191730     0.2087E-04  -6.80943  17.02357
     156.50   3.194514     0.2016E-04  -6.82458  17.06146
     157.50   3.197281     0.4381E-04  -6.48744  16.21860
     158.50   3.200029     0.5345E-04  -6.40104  16.00259
     159.50   3.202761     0.6323E-04  -6.32804  15.82010
     160.50   3.205475     0.6717E-04  -6.30179  15.75449
     161.50   3.208173     0.7336E-04  -6.26352  15.65879
     162.50   3.210853     0.8354E-04  -6.20707  15.51769
     163.50   3.213518     0.1040E-03  -6.11191  15.27978
     164.50   3.216166     0.1507E-03  -5.95091  14.87728
     165.50   3.218798     0.1040E-03  -6.11177  15.27942
     166.50   3.221414     0.1816E-03  -5.86978  14.67444
     167.20   3.223236     0.1264E-03  -6.02713  15.06784
     167.70   3.224533     0.5321E-03  -5.40297  13.50743
     168.50   3.226600     0.5967E-03  -5.35326  13.38314
     169.50   3.229170     0.7675E-03  -5.24389  13.10972
     170.50   3.231725     0.8206E-03  -5.21485  13.03712
     171.50   3.234264     0.7826E-03  -5.23547  13.08867
     172.50   3.236789     0.1063E-02  -5.10225  12.75564
     173.50   3.239300     0.1284E-02  -5.02026  12.55064
     174.50   3.241796     0.1822E-02  -4.86854  12.17135
     175.50   3.244277     0.2441E-02  -4.74137  11.85341
     176.50   3.246745     0.2356E-02  -4.75677  11.89191
     177.50   3.249198     0.2492E-02  -4.73236  11.83089
     178.50   3.251638     0.3437E-02  -4.59276  11.48189
     179.50   3.254065     0.3985E-02  -4.52859  11.32147
     180.50   3.256477     0.4584E-02  -4.46776  11.16941
     181.50   3.258877     0.4261E-02  -4.49952  11.24880
     182.50   3.261263     0.5688E-02  -4.37406  10.93515
     183.50   3.263636     0.5825E-02  -4.36366  10.90915
     184.50   3.265996     0.4550E-02  -4.47095  11.17738
     185.50   3.268344     0.6350E-02  -4.32622  10.81555
     186.50   3.270679     0.7621E-02  -4.24696  10.61740
     187.50   3.273001     0.8293E-02  -4.21026  10.52566
     188.50   3.275311     0.9024E-02  -4.17356  10.43390
     189.50   3.277609     0.1208E-01  -4.04684  10.11710
     190.50   3.279895     0.1175E-01  -4.05887  10.14716
     191.50   3.282169     0.1341E-01  -4.00147  10.00368
     192.50   3.284431     0.1358E-01  -3.99604   9.99010
     193.50   3.286681     0.9263E-02  -4.16224  10.40560
     194.50   3.288920     0.1774E-01  -3.87995   9.69987
     195.50   3.291147     0.1920E-01  -3.84569   9.61422
     196.70   3.293804     0.2478E-01  -3.73480   9.33701
     197.60   3.295787     0.2473E-01  -3.73574   9.33935
     198.40   3.297542     0.2819E-01  -3.67892   9.19730
     199.50   3.299943     0.2864E-01  -3.67205   9.18012
     200.50   3.302114     0.2848E-01  -3.67441   9.18604
     201.50   3.304275     0.3182E-01  -3.62626   9.06564
     202.50   3.306425     0.2607E-01  -3.71281   9.28203
     203.50   3.308564     0.3585E-01  -3.57447   8.93617
     204.50   3.310693     0.4127E-01  -3.51336   8.78341
     205.50   3.312812     0.4414E-01  -3.48412   8.71030
     206.50   3.314920     0.4435E-01  -3.48207   8.70517
     207.40   3.316809     0.4725E-01  -3.45460   8.63650
     207.80   3.317646     0.1048E+00  -3.10880   7.77200
     208.50   3.319106     0.1357E+00  -2.99644   7.49110
     209.50   3.321184     0.1299E+00  -3.01521   7.53804
     210.50   3.323252     0.1345E+00  -3.00012   7.50031
     211.50   3.325310     0.1589E+00  -2.92797   7.31993
     212.50   3.327359     0.1444E+00  -2.96948   7.42369
     213.50   3.329398     0.1566E+00  -2.93415   7.33536
     214.50   3.331427     0.1913E+00  -2.84734   7.11836
     215.50   3.333447     0.1786E+00  -2.87706   7.19265
     216.50   3.335458     0.1694E+00  -2.90013   7.25033
     217.50   3.337459     0.1694E+00  -2.90015   7.25038
     218.50   3.339452     0.2189E+00  -2.78866   6.97166
     219.50   3.341434     0.2243E+00  -2.77821   6.94552
     220.50   3.343409     0.2303E+00  -2.76667   6.91667
     221.50   3.345374     0.1873E+00  -2.85635   7.14088
     222.50   3.347330     0.2343E+00  -2.75914   6.89786
     223.50   3.349277     0.3285E+00  -2.61248   6.53120
     224.50   3.351216     0.3256E+00  -2.61627   6.54068
     225.50   3.353147     0.2686E+00  -2.69981   6.74953
     226.50   3.355068     0.2212E+00  -2.78423   6.96057
     227.50   3.356982     0.2535E+00  -2.72507   6.81268
     228.50   3.358886     0.3781E+00  -2.55134   6.37835
     229.50   3.360783     0.3163E+00  -2.62893   6.57233
     230.50   3.362671     0.3543E+00  -2.57958   6.44895
     231.50   3.364551     0.3424E+00  -2.59441   6.48602
     232.50   3.366423     0.3318E+00  -2.60807   6.52018
     233.50   3.368287     0.3400E+00  -2.59753   6.49384
     234.50   3.370143     0.2294E+00  -2.76840   6.92099
     235.50   3.371991     0.3782E+00  -2.55121   6.37803
     236.50   3.373831     0.2700E+00  -2.69762   6.74404
     237.50   3.375664     0.3341E+00  -2.60507   6.51267
     238.50   3.377488     0.2395E+00  -2.74963   6.87407
     239.50   3.379306     0.2921E+00  -2.66351   6.65876
     240.50   3.381115     0.3263E+00  -2.61540   6.53849
     241.50   3.382917     0.3114E+00  -2.63570   6.58926
     242.50   3.384712     0.5072E+00  -2.42379   6.05947
     243.50   3.386499     0.5509E+00  -2.38795   5.96987
     244.50   3.388279     0.6789E+00  -2.29718   5.74296
     245.50   3.390052     0.7410E+00  -2.25915   5.64787
     246.50   3.391817     0.5777E+00  -2.36729   5.91824
     247.50   3.393575     0.5267E+00  -2.40741   6.01853
     248.50   3.395326     0.2253E+00  -2.77628   6.94070
     249.50   3.397071     0.3456E+00  -2.59036   6.47590
     250.50   3.398808     0.5884E+00  -2.35934   5.89836
     251.30   3.400192     0.2874E+00  -2.67043   6.67607
     251.80   3.401056     0.2014E+00  -2.82496   7.06241
     252.50   3.402261     0.2339E+00  -2.75997   6.89993
     253.50   3.403978     0.5319E+00  -2.40314   6.00785
     254.50   3.405688     0.5629E+00  -2.37855   5.94639
     255.50   3.407391     0.1359E+01  -1.99577   4.98943
     256.50   3.409087     0.9314E+00  -2.15984   5.39960
     257.50   3.410777     0.1345E+01  -2.00019   5.00048
     258.50   3.412461     0.1214E+01  -2.04470   5.11176
     259.50   3.414137     0.1142E+01  -2.07142   5.17856
     260.50   3.415808     0.1050E+01  -2.10777   5.26942
     261.50   3.417472     0.9369E+00  -2.15729   5.39321
     262.50   3.419129     0.1329E+01  -2.00548   5.01371
     263.50   3.420781     0.2719E+01  -1.69459   4.23647
     264.50   3.422426     0.3466E+01  -1.58920   3.97301
     265.50   3.424065     0.6067E+01  -1.34603   3.36508
     266.50   3.425697     0.3174E+01  -1.62733   4.06834
     267.50   3.427324     0.3556E+01  -1.57806   3.94515
     268.50   3.428944     0.4613E+01  -1.46498   3.66246
     269.50   3.430559     0.2847E+01  -1.67467   4.18666
     270.50   3.432167     0.4083E+01  -1.51803   3.79506
     271.50   3.433770     0.2697E+01  -1.69806   4.24514
     272.50   3.435366     0.1626E+01  -1.91776   4.79440
     273.50   3.436957     0.2384E+01  -1.75166   4.37915
     274.50   3.438542     0.1554E+01  -1.93751   4.84379
     275.50   3.440122     0.2201E+01  -1.78638   4.46595
     276.50   3.441695     0.3035E+01  -1.64688   4.11720
     277.50   3.443263     0.3241E+01  -1.61834   4.04585
     278.50   3.444825     0.1911E+01  -1.84781   4.61953
     279.50   3.446382     0.8834E+00  -2.18283   5.45707
     280.50   3.447933     0.1089E+01  -2.09184   5.22960
     281.50   3.449478     0.2886E+01  -1.66869   4.17174
     282.50   3.451018     0.4022E+01  -1.52449   3.81124
     283.50   3.452553     0.3416E+01  -1.59547   3.98868
     284.50   3.454082     0.1933E+01  -1.84272   4.60680
     285.50   3.455606     0.9198E+00  -2.16531   5.41328
     286.50   3.457125     0.2940E+01  -1.66060   4.15150
     287.50   3.458638     0.5423E+01  -1.39475   3.48687
     288.50   3.460146     0.5280E+01  -1.40636   3.51591
     289.50   3.461648     0.7638E+01  -1.24602   3.11504
     291.00   3.463893     0.1181E+02  -1.05683   2.64207
     293.00   3.466868     0.1050E+02  -1.10764   2.76910
     295.00   3.469822     0.9728E+01  -1.14094   2.85235
     297.00   3.472756     0.1023E+02  -1.11926   2.79815
     299.00   3.475671     0.1070E+02  -1.09966   2.74915
     301.00   3.478566     0.1022E+02  -1.11935   2.79838
     303.00   3.481443     0.1202E+02  -1.04909   2.62273
     305.00   3.484300     0.1235E+02  -1.03738   2.59345
     307.00   3.487138     0.1405E+02  -0.98122   2.45306
     309.00   3.489959     0.1262E+02  -1.02775   2.56939
     311.00   3.492760     0.1665E+02  -0.90757   2.26893
     313.00   3.495544     0.1458E+02  -0.96510   2.41275
     315.00   3.498311     0.1533E+02  -0.94354   2.35885
     317.00   3.501059     0.1785E+02  -0.87736   2.19339
     319.00   3.503791     0.1463E+02  -0.96377   2.40941
     321.00   3.506505     0.1623E+02  -0.91878   2.29696
     323.00   3.509202     0.1356E+02  -0.99665   2.49162
     325.00   3.511883     0.2116E+02  -0.80356   2.00890
     327.00   3.514548     0.2547E+02  -0.72298   1.80746
     329.00   3.517196     0.2524E+02  -0.72691   1.81726
     331.00   3.519828     0.2256E+02  -0.77561   1.93903
     333.00   3.522444     0.2386E+02  -0.75130   1.87825
     335.00   3.525045     0.2299E+02  -0.76736   1.91841
     337.00   3.527630     0.1571E+02  -0.93287   2.33218
     339.00   3.530200     0.1858E+02  -0.85992   2.14980
     341.00   3.532754     0.1938E+02  -0.84171   2.10429
     343.00   3.535294     0.2079E+02  -0.81114   2.02784
     345.00   3.537819     0.2318E+02  -0.76393   1.90983
     347.00   3.540329     0.2451E+02  -0.73966   1.84915
     349.00   3.542825     0.2855E+02  -0.67342   1.68354
     351.00   3.545307     0.3078E+02  -0.64072   1.60179
     353.00   3.547775     0.2632E+02  -0.70877   1.77194
     355.00   3.550228     0.3007E+02  -0.65089   1.62724
     357.00   3.552668     0.1943E+02  -0.84050   2.10125
     359.00   3.555094     0.2116E+02  -0.80356   2.00890
     361.00   3.557507     0.2874E+02  -0.67048   1.67620
     363.00   3.559907     0.3089E+02  -0.63910   1.59774
     364.00   3.561101     0.3142E+02  -0.63176   1.57940
     365.00   3.562293     0.3520E+02  -0.58240   1.45600
     367.00   3.564666     0.3927E+02  -0.53496   1.33739
     369.00   3.567026     0.3329E+02  -0.60668   1.51669
     371.00   3.569374     0.3428E+02  -0.59396   1.48491
     373.00   3.571709     0.1908E+02  -0.84849   2.12122
     375.00   3.574031     0.2244E+02  -0.77801   1.94502
     377.00   3.576341     0.3286E+02  -0.61226   1.53065
     379.00   3.578639     0.3373E+02  -0.60097   1.50241
     381.00   3.580925     0.2954E+02  -0.65852   1.64629
     383.00   3.583199     0.1459E+02  -0.96482   2.41206
     385.00   3.585461     0.2048E+02  -0.81771   2.04429
     387.00   3.587711     0.2064E+02  -0.81437   2.03593
     389.00   3.589950     0.3085E+02  -0.63972   1.59930
     391.00   3.592177     0.3964E+02  -0.53088   1.32719
     393.00   3.594393     0.1753E+02  -0.88532   2.21330
     395.00   3.596597     0.3309E+02  -0.60933   1.52332
     397.00   3.598790     0.2256E+02  -0.77570   1.93925
     399.00   3.600973     0.5646E+02  -0.37723   0.94306
     401.00   3.603144     0.6435E+02  -0.32043   0.80109
     403.00   3.605305     0.6295E+02  -0.32996   0.82489
     405.00   3.607455     0.5978E+02  -0.35241   0.88103
     407.00   3.609594     0.5478E+02  -0.39038   0.97595
     409.00   3.611723     0.7420E+02  -0.25858   0.64644
     411.00   3.613842     0.6914E+02  -0.28927   0.72318
     413.00   3.615950     0.6469E+02  -0.31815   0.79536
     415.00   3.618048     0.6263E+02  -0.33218   0.83044
     417.00   3.620136     0.6424E+02  -0.32115   0.80288
     419.00   3.622214     0.6365E+02  -0.32516   0.81289
     421.00   3.624282     0.6462E+02  -0.31863   0.79658
     423.00   3.626340     0.5789E+02  -0.36638   0.91594
     425.00   3.628389     0.6726E+02  -0.30121   0.75301
     427.00   3.630428     0.6281E+02  -0.33095   0.82738
     429.00   3.632457     0.5895E+02  -0.35849   0.89621
     431.00   3.634477     0.5199E+02  -0.41307   1.03268
     433.00   3.636488     0.8089E+02  -0.22109   0.55272
     435.00   3.638489     0.8312E+02  -0.20930   0.52324
     437.00   3.640481     0.9053E+02  -0.17221   0.43052
     439.00   3.642465     0.7686E+02  -0.24326   0.60815
     441.00   3.644439     0.8164E+02  -0.21707   0.54267
     443.00   3.646404     0.8914E+02  -0.17892   0.44731
     445.00   3.648360     0.9128E+02  -0.16861   0.42154
     447.00   3.650307     0.1000E+03  -0.12883   0.32208
     449.00   3.652246     0.1041E+03  -0.11174   0.27935
     451.00   3.654176     0.1235E+03  -0.03735   0.09337
     453.00   3.656098     0.1032E+03  -0.11520   0.28800
     455.00   3.658011     0.1103E+03  -0.08629   0.21573
     457.00   3.659916     0.1224E+03  -0.04122   0.10306
     459.00   3.661813     0.1140E+03  -0.07191   0.17979
     461.00   3.663701     0.1178E+03  -0.05800   0.14500
     463.00   3.665581     0.1135E+03  -0.07405   0.18512
     465.00   3.667453     0.1155E+03  -0.06643   0.16607
     467.00   3.669317     0.1231E+03  -0.03880   0.09699
     469.00   3.671173     0.1203E+03  -0.04874   0.12185
     471.00   3.673021     0.1163E+03  -0.06331   0.15827
     473.00   3.674861     0.1209E+03  -0.04653   0.11633
     475.00   3.676694     0.1246E+03  -0.03339   0.08348
     477.00   3.678518     0.1206E+03  -0.04759   0.11897
     479.00   3.680336     0.1227E+03  -0.04017   0.10043
     481.00   3.682145     0.1236E+03  -0.03687   0.09218
     483.00   3.683947     0.1299E+03  -0.01544   0.03860
     485.00   3.685742     0.1232E+03  -0.03831   0.09578
     487.00   3.687529     0.1130E+03  -0.07606   0.19016
     489.00   3.689309     0.1258E+03  -0.02932   0.07330
     491.00   3.691082     0.1266E+03  -0.02644   0.06611
     493.00   3.692847     0.1236E+03  -0.03695   0.09236
     495.00   3.694605     0.1289E+03  -0.01871   0.04678
     497.00   3.696356     0.1220E+03  -0.04268   0.10670
     499.00   3.698101     0.1122E+03  -0.07912   0.19780
     501.00   3.699838     0.1037E+03  -0.11340   0.28351
     503.00   3.701568     0.1129E+03  -0.07640   0.19101
     505.00   3.703291     0.1126E+03  -0.07733   0.19332
     507.00   3.705008     0.1183E+03  -0.05614   0.14034
     509.00   3.706718     0.1102E+03  -0.08668   0.21669
     511.00   3.708421     0.1143E+03  -0.07096   0.17739
     513.00   3.710117     0.1095E+03  -0.08943   0.22358
     515.00   3.711807     0.1051E+03  -0.10727   0.26816
     517.00   3.713490     0.9019E+02  -0.17382   0.43456
     519.00   3.715167     0.9584E+02  -0.14744   0.36861
     521.00   3.716838     0.1085E+03  -0.09350   0.23375
     523.00   3.718502     0.1242E+03  -0.03472   0.08680
     525.00   3.720159     0.1323E+03  -0.00727   0.01817
     527.00   3.721811     0.1121E+03  -0.07933   0.19833
     529.00   3.723456     0.1365E+03   0.00602  -0.01505
     531.00   3.725095     0.1484E+03   0.04233  -0.10584
     533.00   3.726727     0.1248E+03  -0.03294   0.08234
     535.00   3.728354     0.1418E+03   0.02262  -0.05655
     537.00   3.729974     0.1401E+03   0.01755  -0.04388
     539.00   3.731589     0.1361E+03   0.00497  -0.01243
     541.00   3.733197     0.1345E+03  -0.00011   0.00028
     543.00   3.734800     0.1371E+03   0.00808  -0.02021
     545.00   3.736397     0.1392E+03   0.01462  -0.03656
     547.00   3.737987     0.1356E+03   0.00320  -0.00801
     549.00   3.739572     0.1369E+03   0.00743  -0.01858
     551.00   3.741152     0.1346E+03   0.00000   0.00000
     553.00   3.742725     0.1425E+03   0.02486  -0.06215
     555.00   3.744293     0.1460E+03   0.03541  -0.08852
     557.00   3.745855     0.1429E+03   0.02619  -0.06547
     559.00   3.747412     0.1378E+03   0.01022  -0.02554
     561.00   3.748963     0.1433E+03   0.02728  -0.06821
     563.00   3.750508     0.1423E+03   0.02434  -0.06085
     565.00   3.752048     0.1463E+03   0.03617  -0.09042
     567.00   3.753583     0.1426E+03   0.02509  -0.06272
     569.00   3.755112     0.1491E+03   0.04452  -0.11129
     571.00   3.756636     0.1432E+03   0.02685  -0.06711
     573.00   3.758155     0.1592E+03   0.07287  -0.18219
     575.00   3.759668     0.1517E+03   0.05186  -0.12965
     577.00   3.761176     0.1539E+03   0.05813  -0.14533
     579.00   3.762679     0.1463E+03   0.03625  -0.09061
     581.00   3.764176     0.1545E+03   0.05988  -0.14969
     583.00   3.765669     0.1604E+03   0.07612  -0.19031
     585.00   3.767156     0.1527E+03   0.05481  -0.13703
     587.00   3.768638     0.1514E+03   0.05113  -0.12783
     589.00   3.770115     0.1240E+03  -0.03573   0.08933
     591.00   3.771587     0.1475E+03   0.03983  -0.09958
     593.00   3.773055     0.1505E+03   0.04865  -0.12161
     595.00   3.774517     0.1511E+03   0.05030  -0.12575
     597.00   3.775974     0.1553E+03   0.06208  -0.15520
     599.00   3.777427     0.1524E+03   0.05388  -0.13469
     601.00   3.778874     0.1506E+03   0.04887  -0.12219
     603.00   3.780317     0.1569E+03   0.06658  -0.16644
     605.00   3.781755     0.1608E+03   0.07720  -0.19301
     607.00   3.783189     0.1607E+03   0.07698  -0.19245
     609.00   3.784617     0.1537E+03   0.05766  -0.14415
     611.00   3.786041     0.1549E+03   0.06100  -0.15249
     613.00   3.787461     0.1444E+03   0.03054  -0.07636
     615.00   3.788875     0.1495E+03   0.04571  -0.11427
     617.00   3.790285     0.1362E+03   0.00506  -0.01266
     619.00   3.791691     0.1475E+03   0.03971  -0.09928
     621.00   3.793092     0.1450E+03   0.03243  -0.08107
     623.00   3.794488     0.1392E+03   0.01460  -0.03649
     625.00   3.795880     0.1350E+03   0.00130  -0.00326
     627.00   3.797267     0.1431E+03   0.02655  -0.06638
     629.00   3.798651     0.1482E+03   0.04177  -0.10443
     631.00   3.800029     0.1442E+03   0.03013  -0.07533
     633.00   3.801404     0.1474E+03   0.03943  -0.09858
     635.00   3.802774     0.1474E+03   0.03961  -0.09903
     637.00   3.804139     0.1473E+03   0.03934  -0.09835
     639.00   3.805501     0.1527E+03   0.05489  -0.13722
     641.00   3.806858     0.1494E+03   0.04542  -0.11355
     643.00   3.808211     0.1511E+03   0.05039  -0.12599
     645.00   3.809560     0.1503E+03   0.04802  -0.12005
     647.00   3.810904     0.1502E+03   0.04777  -0.11942
     649.00   3.812245     0.1474E+03   0.03955  -0.09887
     651.00   3.813581     0.1546E+03   0.06022  -0.15055
     653.00   3.814913     0.1549E+03   0.06116  -0.15290
     655.00   3.816241     0.1520E+03   0.05295  -0.13237
     657.00   3.817565     0.1463E+03   0.03635  -0.09087
     659.00   3.818885     0.1517E+03   0.05192  -0.12981
     661.00   3.820201     0.1530E+03   0.05558  -0.13894
     663.00   3.821513     0.1500E+03   0.04706  -0.11766
     665.00   3.822822     0.1489E+03   0.04400  -0.10999
     667.00   3.824126     0.1436E+03   0.02821  -0.07052
     669.00   3.825426     0.1444E+03   0.03053  -0.07632
     671.00   3.826723     0.1364E+03   0.00572  -0.01431
     673.00   3.828015     0.1406E+03   0.01898  -0.04746
     675.00   3.829304     0.1375E+03   0.00945  -0.02364
     677.00   3.830589     0.1385E+03   0.01235  -0.03088
     679.00   3.831870     0.1363E+03   0.00544  -0.01360
     681.00   3.833147     0.1382E+03   0.01148  -0.02871
     683.00   3.834421     0.1411E+03   0.02046  -0.05115
     685.00   3.835690     0.1372E+03   0.00846  -0.02116
     687.00   3.836957     0.1407E+03   0.01937  -0.04841
     689.00   3.838219     0.1446E+03   0.03115  -0.07787
     691.00   3.839478     0.1462E+03   0.03593  -0.08981
     693.00   3.840733     0.1456E+03   0.03403  -0.08508
     695.00   3.841985     0.1472E+03   0.03879  -0.09698
     697.00   3.843233     0.1514E+03   0.05108  -0.12771
     699.00   3.844477     0.1522E+03   0.05344  -0.13359
     701.00   3.845718     0.1521E+03   0.05323  -0.13306
     703.00   3.846955     0.1546E+03   0.06025  -0.15062
     705.00   3.848189     0.1521E+03   0.05300  -0.13251
     707.00   3.849419     0.1428E+03   0.02585  -0.06462
     709.00   3.850646     0.1331E+03  -0.00489   0.01221
     711.00   3.851870     0.1271E+03  -0.02467   0.06168
     713.00   3.853090     0.1230E+03  -0.03894   0.09735
     715.00   3.854306     0.1224E+03  -0.04117   0.10293
     717.00   3.855519     0.1251E+03  -0.03160   0.07901
     719.00   3.856729     0.1225E+03  -0.04088   0.10221
     721.00   3.857935     0.1271E+03  -0.02499   0.06248
     723.00   3.859138     0.1322E+03  -0.00776   0.01941
     725.00   3.860338     0.1349E+03   0.00101  -0.00253
     727.00   3.861534     0.1375E+03   0.00917  -0.02292
     729.00   3.862728     0.1381E+03   0.01130  -0.02824
     731.00   3.863917     0.1464E+03   0.03652  -0.09130
     733.00   3.865104     0.1471E+03   0.03862  -0.09655
     735.00   3.866287     0.1530E+03   0.05575  -0.13937
     737.00   3.867467     0.1602E+03   0.07579  -0.18948
     739.00   3.868644     0.1570E+03   0.06690  -0.16725
     741.00   3.869818     0.1616E+03   0.07934  -0.19835
     743.00   3.870989     0.1670E+03   0.09373  -0.23433
     745.00   3.872156     0.1657E+03   0.09026  -0.22565
     747.00   3.873321     0.1740E+03   0.11154  -0.27885
     749.00   3.874482     0.1735E+03   0.11036  -0.27589
     751.00   3.875640     0.1754E+03   0.11500  -0.28751
     753.00   3.876795     0.1813E+03   0.12950  -0.32375
     755.00   3.877947     0.1836E+03   0.13494  -0.33736
     757.00   3.879096     0.1848E+03   0.13764  -0.34409
     759.00   3.880242     0.1753E+03   0.11474  -0.28686
     761.00   3.881385     0.1668E+03   0.09332  -0.23330
     763.00   3.882524     0.1573E+03   0.06774  -0.16934
     765.00   3.883662     0.1473E+03   0.03929  -0.09824
     767.00   3.884795     0.1360E+03   0.00448  -0.01120
     769.00   3.885926     0.1391E+03   0.01449  -0.03622
     771.00   3.887054     0.1366E+03   0.00637  -0.01592
     773.00   3.888180     0.1366E+03   0.00643  -0.01607
     775.00   3.889302     0.1357E+03   0.00371  -0.00927
     777.00   3.890421     0.1383E+03   0.01181  -0.02953
     779.00   3.891537     0.1397E+03   0.01629  -0.04073
     781.00   3.892651     0.1401E+03   0.01734  -0.04334
     783.00   3.893762     0.1400E+03   0.01726  -0.04316
     785.00   3.894870     0.1377E+03   0.00993  -0.02484
     787.00   3.895975     0.1416E+03   0.02200  -0.05501
     789.00   3.897077     0.1409E+03   0.02000  -0.04999
     791.00   3.898176     0.1366E+03   0.00662  -0.01654
     793.00   3.899273     0.1388E+03   0.01340  -0.03350
     795.00   3.900367     0.1386E+03   0.01268  -0.03171
     797.00   3.901458     0.1438E+03   0.02880  -0.07199
     799.00   3.902547     0.1444E+03   0.03070  -0.07676
     801.00   3.903632     0.1492E+03   0.04475  -0.11189
     803.00   3.904716     0.1512E+03   0.05060  -0.12650
     805.00   3.905796     0.1514E+03   0.05111  -0.12777
     807.00   3.906873     0.1581E+03   0.06983  -0.17458
     809.00   3.907948     0.1581E+03   0.07000  -0.17501
     811.00   3.909021     0.1613E+03   0.07861  -0.19652
     813.00   3.910090     0.1701E+03   0.10168  -0.25420
     815.00   3.911158     0.1753E+03   0.11474  -0.28684
     817.00   3.912222     0.1783E+03   0.12216  -0.30540
     819.00   3.913284     0.1754E+03   0.11499  -0.28747
     821.00   3.914343     0.1636E+03   0.08483  -0.21209
     823.00   3.915400     0.1644E+03   0.08698  -0.21744
     825.00   3.916454     0.1634E+03   0.08417  -0.21043
     827.00   3.917506     0.1642E+03   0.08639  -0.21597
     829.00   3.918555     0.1616E+03   0.07939  -0.19847
     831.00   3.919601     0.1551E+03   0.06162  -0.15405
     833.00   3.920645     0.1535E+03   0.05708  -0.14271
     835.00   3.921686     0.1529E+03   0.05530  -0.13826
     837.00   3.922725     0.1544E+03   0.05964  -0.14911
     839.00   3.923762     0.1494E+03   0.04542  -0.11354
     841.00   3.924796     0.1547E+03   0.06047  -0.15118
     843.00   3.925828     0.1478E+03   0.04079  -0.10197
     845.00   3.926857     0.1373E+03   0.00855  -0.02137
     847.00   3.927883     0.1370E+03   0.00768  -0.01920
     849.00   3.928908     0.1391E+03   0.01434  -0.03585
     851.00   3.929929     0.1327E+03  -0.00625   0.01563
     853.00   3.930949     0.1377E+03   0.01006  -0.02515
     855.00   3.931966     0.1292E+03  -0.01772   0.04429
     857.00   3.932981     0.1457E+03   0.03437  -0.08594
     859.00   3.933993     0.1449E+03   0.03216  -0.08040
     861.00   3.935003     0.1490E+03   0.04414  -0.11034
     863.00   3.936011     0.1531E+03   0.05594  -0.13986
     865.00   3.937016     0.1538E+03   0.05803  -0.14509
     867.00   3.938019     0.1399E+03   0.01685  -0.04212
     869.00   3.939020     0.1536E+03   0.05740  -0.14349
     871.00   3.940018     0.1606E+03   0.07674  -0.19185
     873.00   3.941014     0.1630E+03   0.08328  -0.20820
     875.00   3.942008     0.1628E+03   0.08261  -0.20652
     877.00   3.943000     0.1651E+03   0.08887  -0.22218
     879.00   3.943989     0.1721E+03   0.10683  -0.26708
     881.00   3.944976     0.1704E+03   0.10242  -0.25604
     883.00   3.945961     0.1726E+03   0.10812  -0.27029
     885.00   3.946943     0.1675E+03   0.09497  -0.23742
     887.00   3.947924     0.1574E+03   0.06790  -0.16975
     889.00   3.948902     0.1568E+03   0.06629  -0.16573
     891.00   3.949878     0.1596E+03   0.07414  -0.18535
     893.00   3.950851     0.1576E+03   0.06845  -0.17113
     895.00   3.951823     0.1592E+03   0.07295  -0.18236
     897.00   3.952792     0.1599E+03   0.07484  -0.18711
     899.00   3.953760     0.1605E+03   0.07663  -0.19157
     901.00   3.954725     0.1583E+03   0.07051  -0.17628
     903.00   3.955688     0.1666E+03   0.09276  -0.23191
     905.00   3.956649     0.1742E+03   0.11199  -0.27997
     907.00   3.957607     0.1777E+03   0.12066  -0.30164
     909.00   3.958564     0.1777E+03   0.12074  -0.30185
     911.00   3.959518     0.1810E+03   0.12860  -0.32150
     913.00   3.960471     0.1841E+03   0.13599  -0.33997
     915.00   3.961421     0.1829E+03   0.13318  -0.33294
     917.00   3.962369     0.1833E+03   0.13410  -0.33525
     919.00   3.963315     0.1856E+03   0.13952  -0.34881
     921.00   3.964260     0.1742E+03   0.11201  -0.28002
     923.00   3.965202     0.1703E+03   0.10232  -0.25580
     925.00   3.966142     0.1669E+03   0.09344  -0.23359
     927.00   3.967080     0.1710E+03   0.10390  -0.25974
     929.00   3.968016     0.1636E+03   0.08477  -0.21192
     931.00   3.968950     0.1644E+03   0.08702  -0.21755
     933.00   3.969882     0.1671E+03   0.09389  -0.23472
     935.00   3.970812     0.1671E+03   0.09398  -0.23496
     937.00   3.971740     0.1623E+03   0.08129  -0.20323
     939.00   3.972666     0.1679E+03   0.09606  -0.24016
     941.00   3.973590     0.1670E+03   0.09385  -0.23464
     943.00   3.974512     0.1708E+03   0.10357  -0.25893
     945.00   3.975432     0.1699E+03   0.10127  -0.25318
     947.00   3.976350     0.1755E+03   0.11526  -0.28815
     949.00   3.977266     0.1769E+03   0.11886  -0.29716
     951.00   3.978180     0.1690E+03   0.09879  -0.24699
     953.00   3.979093     0.1737E+03   0.11069  -0.27673
     955.00   3.980003     0.1728E+03   0.10847  -0.27117
     957.00   3.980912     0.1757E+03   0.11569  -0.28923
     959.00   3.981819     0.1780E+03   0.12153  -0.30384
     961.00   3.982723     0.1764E+03   0.11759  -0.29398
     963.00   3.983626     0.1796E+03   0.12521  -0.31302
     965.00   3.984527     0.1774E+03   0.12002  -0.30006
     967.00   3.985426     0.1783E+03   0.12225  -0.30562
     969.00   3.986324     0.1804E+03   0.12719  -0.31797
     971.00   3.987219     0.1761E+03   0.11673  -0.29183
     973.00   3.988113     0.1734E+03   0.11017  -0.27543
     975.00   3.989005     0.1734E+03   0.11015  -0.27538
     977.00   3.989895     0.1748E+03   0.11345  -0.28362
     979.00   3.990783     0.1734E+03   0.11010  -0.27525
     981.00   3.991669     0.1775E+03   0.12020  -0.30049
     983.00   3.992553     0.1756E+03   0.11552  -0.28880
     985.00   3.993436     0.1768E+03   0.11853  -0.29632
     987.00   3.994317     0.1759E+03   0.11638  -0.29094
     989.00   3.995196     0.1759E+03   0.11632  -0.29080
     991.00   3.996074     0.1760E+03   0.11664  -0.29160
     993.00   3.996949     0.1776E+03   0.12056  -0.30140
     995.00   3.997823     0.1790E+03   0.12382  -0.30954
     997.00   3.998695     0.1793E+03   0.12455  -0.31138
     999.00   3.999566     0.1789E+03   0.12367  -0.30917
    1003.00   4.001301     0.1810E+03   0.12861  -0.32153
    1008.00   4.003461     0.1809E+03   0.12839  -0.32097
    1013.00   4.005610     0.1863E+03   0.14127  -0.35317
    1018.00   4.007748     0.1843E+03   0.13644  -0.34110
    1023.00   4.009875     0.1868E+03   0.14228  -0.35570
    1028.00   4.011993     0.1881E+03   0.14533  -0.36331
    1033.00   4.014100     0.1879E+03   0.14501  -0.36252
    1038.00   4.016197     0.1873E+03   0.14357  -0.35892
    1043.00   4.018284     0.1891E+03   0.14778  -0.36945
    1048.00   4.020361     0.1886E+03   0.14647  -0.36618
    1053.00   4.022429     0.1837E+03   0.13507  -0.33768
    1058.00   4.024486     0.1785E+03   0.12258  -0.30646
    1063.00   4.026533     0.1771E+03   0.11928  -0.29821
    1068.00   4.028571     0.1787E+03   0.12323  -0.30808
    1073.00   4.030600     0.1813E+03   0.12951  -0.32378
    1078.00   4.032619     0.1809E+03   0.12854  -0.32136
    1083.00   4.034628     0.1789E+03   0.12353  -0.30884
    1088.00   4.036629     0.1777E+03   0.12067  -0.30168
    1093.00   4.038620     0.1770E+03   0.11903  -0.29758
    1098.00   4.040603     0.1744E+03   0.11267  -0.28168
    1103.00   4.042576     0.1737E+03   0.11073  -0.27682
    1108.00   4.044539     0.1665E+03   0.09242  -0.23105
    1113.00   4.046495     0.1682E+03   0.09687  -0.24217
    1118.00   4.048442     0.1680E+03   0.09637  -0.24093
    1123.00   4.050380     0.1690E+03   0.09902  -0.24755
    1128.00   4.052309     0.1697E+03   0.10062  -0.25156
    1133.00   4.054230     0.1701E+03   0.10162  -0.25405
    1138.00   4.056142     0.1702E+03   0.10200  -0.25500
    1143.00   4.058046     0.1698E+03   0.10099  -0.25246
    1148.00   4.059942     0.1715E+03   0.10522  -0.26305
    1153.00   4.061830     0.1720E+03   0.10647  -0.26617
    1158.00   4.063708     0.1712E+03   0.10443  -0.26108
    1163.00   4.065579     0.1700E+03   0.10145  -0.25362
    1168.00   4.067443     0.1702E+03   0.10198  -0.25495
    1173.00   4.069298     0.1699E+03   0.10113  -0.25283
    1178.00   4.071145     0.1666E+03   0.09259  -0.23147
    1183.00   4.072985     0.1639E+03   0.08570  -0.21425
    1188.00   4.074817     0.1622E+03   0.08118  -0.20295
    1193.00   4.076640     0.1646E+03   0.08734  -0.21834
    1198.00   4.078457     0.1614E+03   0.07904  -0.19759
    1203.00   4.080266     0.1647E+03   0.08779  -0.21948
    1208.00   4.082067     0.1644E+03   0.08688  -0.21720
    1213.00   4.083861     0.1650E+03   0.08853  -0.22133
    1218.00   4.085648     0.1655E+03   0.08975  -0.22437
    1223.00   4.087426     0.1650E+03   0.08848  -0.22121
    1228.00   4.089198     0.1643E+03   0.08673  -0.21682
    1233.00   4.090963     0.1636E+03   0.08480  -0.21200
    1238.00   4.092721     0.1634E+03   0.08440  -0.21100
    1243.00   4.094471     0.1595E+03   0.07367  -0.18418
    1248.00   4.096214     0.1602E+03   0.07572  -0.18930
    1253.00   4.097951     0.1597E+03   0.07421  -0.18552
    1258.00   4.099681     0.1581E+03   0.06985  -0.17463
    1263.00   4.101403     0.1583E+03   0.07042  -0.17606
    1268.00   4.103119     0.1578E+03   0.06901  -0.17254
    1273.00   4.104828     0.1575E+03   0.06820  -0.17051
    1278.00   4.106531     0.1581E+03   0.06990  -0.17475
    1283.00   4.108227     0.1552E+03   0.06189  -0.15474
    1288.00   4.109916     0.1565E+03   0.06562  -0.16405
    1293.00   4.111598     0.1555E+03   0.06275  -0.15688
    1298.00   4.113275     0.1568E+03   0.06648  -0.16620
    1303.00   4.114944     0.1555E+03   0.06271  -0.15677
    1308.00   4.116608     0.1556E+03   0.06304  -0.15760
    1313.00   4.118265     0.1530E+03   0.05562  -0.13905
    1318.00   4.119915     0.1524E+03   0.05395  -0.13487
    1323.00   4.121560     0.1520E+03   0.05295  -0.13237
    1328.00   4.123198     0.1500E+03   0.04702  -0.11755
    1333.00   4.124830     0.1499E+03   0.04683  -0.11708
    1338.00   4.126456     0.1485E+03   0.04272  -0.10679
    1343.00   4.128076     0.1483E+03   0.04229  -0.10573
    1348.00   4.129690     0.1471E+03   0.03848  -0.09621
    1353.00   4.131298     0.1461E+03   0.03574  -0.08935
    1358.00   4.132900     0.1442E+03   0.02984  -0.07460
    1363.00   4.134496     0.1440E+03   0.02929  -0.07324
    1368.00   4.136086     0.1450E+03   0.03237  -0.08093
    1373.00   4.137671     0.1459E+03   0.03508  -0.08769
    1378.00   4.139249     0.1461E+03   0.03557  -0.08893
    1383.00   4.140822     0.1461E+03   0.03568  -0.08919
    1388.00   4.142389     0.1448E+03   0.03174  -0.07936
    1393.00   4.143951     0.1273E+03  -0.02418   0.06045
    1398.00   4.145507     0.1288E+03  -0.01917   0.04793
    1403.00   4.147058     0.1283E+03  -0.02076   0.05190
    1408.00   4.148602     0.1293E+03  -0.01727   0.04318
    1413.00   4.150142     0.1286E+03  -0.01982   0.04955
    1418.00   4.151676     0.1297E+03  -0.01604   0.04011
    1423.00   4.153205     0.1293E+03  -0.01741   0.04354
    1428.00   4.154728     0.1285E+03  -0.02005   0.05013
    1433.00   4.156246     0.1310E+03  -0.01161   0.02903
    1438.00   4.157759     0.1320E+03  -0.00850   0.02124
    1443.00   4.159266     0.1305E+03  -0.01326   0.03314
    1448.00   4.160769     0.1327E+03  -0.00610   0.01526
    1453.00   4.162266     0.1323E+03  -0.00736   0.01841
    1457.00   4.163460     0.1332E+03  -0.00458   0.01144
    1462.00   4.164948     0.1246E+03  -0.03351   0.08379
    1468.00   4.166726     0.1260E+03  -0.02865   0.07163
    1473.00   4.168202     0.1259E+03  -0.02883   0.07209
    1478.00   4.169674     0.1275E+03  -0.02361   0.05903
    1483.00   4.171141     0.1287E+03  -0.01946   0.04866
    1488.00   4.172603     0.1286E+03  -0.01957   0.04894
    1493.00   4.174060     0.1318E+03  -0.00900   0.02250
    1498.00   4.175512     0.1319E+03  -0.00884   0.02211
    1503.00   4.176959     0.1312E+03  -0.01118   0.02794
    1508.00   4.178401     0.1323E+03  -0.00744   0.01860
    1513.00   4.179839     0.1346E+03   0.00008  -0.00020
    1518.00   4.181272     0.1356E+03   0.00337  -0.00843
    1523.00   4.182700     0.1361E+03   0.00478  -0.01196
    1528.00   4.184123     0.1373E+03   0.00863  -0.02159
    1533.00   4.185542     0.1374E+03   0.00903  -0.02257
    1538.00   4.186956     0.1330E+03  -0.00519   0.01297
    1543.00   4.188366     0.1351E+03   0.00159  -0.00398
    1548.00   4.189771     0.1359E+03   0.00434  -0.01085
    1553.00   4.191172     0.1359E+03   0.00410  -0.01025
    1558.00   4.192567     0.1289E+03  -0.01872   0.04679
    1563.00   4.193959     0.1305E+03  -0.01330   0.03326
    1568.00   4.195346     0.1321E+03  -0.00822   0.02055
    1573.00   4.196729     0.1358E+03   0.00377  -0.00943
    1578.00   4.198107     0.1183E+03  -0.05583   0.13957
    1583.00   4.199481     0.1244E+03  -0.03427   0.08567
    1588.00   4.200850     0.1274E+03  -0.02392   0.05981
    1593.00   4.202216     0.1320E+03  -0.00852   0.02129
    1598.00   4.203577     0.1355E+03   0.00282  -0.00705
    1605.00   4.205475     0.1252E+03  -0.03135   0.07839
    1615.00   4.208173     0.1319E+03  -0.00867   0.02166
    1625.00   4.210854     0.1237E+03  -0.03659   0.09148
    1635.00   4.213518     0.1317E+03  -0.00927   0.02317
    1645.00   4.216166     0.1243E+03  -0.03446   0.08616
    1655.00   4.218798     0.1295E+03  -0.01685   0.04212
    1665.00   4.221415     0.1240E+03  -0.03554   0.08886
    1675.00   4.224015     0.1281E+03  -0.02137   0.05342
    1685.00   4.226600     0.1300E+03  -0.01499   0.03746
    1695.00   4.229170     0.1262E+03  -0.02787   0.06968
    1705.00   4.231725     0.1259E+03  -0.02898   0.07245
    1715.00   4.234264     0.1228E+03  -0.03968   0.09919
    1725.00   4.236789     0.1214E+03  -0.04483   0.11208
    1735.00   4.239300     0.1172E+03  -0.06002   0.15006
    1745.00   4.241796     0.1160E+03  -0.06469   0.16173
    1755.00   4.244277     0.1146E+03  -0.06983   0.17459
    1765.00   4.246745     0.1113E+03  -0.08262   0.20656
    1775.00   4.249198     0.1083E+03  -0.09443   0.23609
    1785.00   4.251638     0.1064E+03  -0.10208   0.25519
    1795.00   4.254065     0.1033E+03  -0.11498   0.28744
    1805.00   4.256477     0.1006E+03  -0.12637   0.31593
    1815.00   4.258877     0.9895E+02  -0.13359   0.33396
    1825.00   4.261263     0.9738E+02  -0.14052   0.35130
    1835.00   4.263636     0.9583E+02  -0.14747   0.36867
    1845.00   4.265996     0.9391E+02  -0.15628   0.39071
    1855.00   4.268344     0.9254E+02  -0.16263   0.40658
    1865.00   4.270679     0.9005E+02  -0.17451   0.43628
    1875.00   4.273001     0.8838E+02  -0.18264   0.45661
    1885.00   4.275311     0.8744E+02  -0.18725   0.46814
    1895.00   4.277609     0.8498E+02  -0.19966   0.49914
    1905.00   4.279895     0.8505E+02  -0.19933   0.49833
    1915.00   4.282169     0.8348E+02  -0.20739   0.51847
    1925.00   4.284431     0.8233E+02  -0.21342   0.53355
    1935.00   4.286681     0.8039E+02  -0.22377   0.55943
    1945.00   4.288919     0.7865E+02  -0.23326   0.58316
    1955.00   4.291147     0.7762E+02  -0.23900   0.59750
    1965.00   4.293363     0.7587E+02  -0.24889   0.62224
    1975.00   4.295567     0.7368E+02  -0.26165   0.65413
    1985.00   4.297760     0.7258E+02  -0.26814   0.67035
    1995.00   4.299943     0.7171E+02  -0.27339   0.68346
    2005.00   4.302114     0.7113E+02  -0.27690   0.69225
    2015.00   4.304275     0.7016E+02  -0.28291   0.70728
    2025.00   4.306425     0.6874E+02  -0.29175   0.72938
    2035.00   4.308564     0.6807E+02  -0.29606   0.74014
    2045.00   4.310693     0.6780E+02  -0.29775   0.74438
    2055.00   4.312812     0.6692E+02  -0.30344   0.75861
    2065.00   4.314920     0.6610E+02  -0.30879   0.77197
    2075.00   4.317018     0.6555E+02  -0.31242   0.78105
    2085.00   4.319106     0.6482E+02  -0.31727   0.79318
    2095.00   4.321184     0.6397E+02  -0.32304   0.80760
    2105.00   4.323252     0.6365E+02  -0.32516   0.81290
    2115.00   4.325311     0.6277E+02  -0.33120   0.82800
    2125.00   4.327359     0.6201E+02  -0.33649   0.84123
    2135.00   4.329398     0.6153E+02  -0.33986   0.84965
    2145.00   4.331428     0.6078E+02  -0.34525   0.86312
    2155.00   4.333447     0.5997E+02  -0.35104   0.87760
    2165.00   4.335458     0.5907E+02  -0.35763   0.89406
    2175.00   4.337460     0.5824E+02  -0.36379   0.90947
    2185.00   4.339452     0.5758E+02  -0.36868   0.92171
    2195.00   4.341434     0.5690E+02  -0.37386   0.93466
    2205.00   4.343409     0.5573E+02  -0.38293   0.95733
    2215.00   4.345374     0.5541E+02  -0.38536   0.96341
    2225.00   4.347330     0.5428E+02  -0.39437   0.98591
    2235.00   4.349277     0.5358E+02  -0.40001   1.00002
    2245.00   4.351216     0.5282E+02  -0.40615   1.01538
    2255.00   4.353147     0.5218E+02  -0.41149   1.02873
    2265.00   4.355068     0.5117E+02  -0.41996   1.04991
    2275.00   4.356981     0.5075E+02  -0.42351   1.05879
    2285.00   4.358886     0.4978E+02  -0.43191   1.07977
    2295.00   4.360783     0.3881E+02  -0.53999   1.34998
    2305.00   4.362671     0.4378E+02  -0.48770   1.21925
    2315.00   4.364551     0.4373E+02  -0.48818   1.22044
    2325.00   4.366423     0.3610E+02  -0.57142   1.42854
    2335.00   4.368287     0.4003E+02  -0.52657   1.31641
    2345.00   4.370143     0.3581E+02  -0.57503   1.43758
    2355.00   4.371991     0.3344E+02  -0.60472   1.51181
    2365.00   4.373831     0.3662E+02  -0.56531   1.41328
    2375.00   4.375664     0.3356E+02  -0.60322   1.50806
    2385.00   4.377488     0.3137E+02  -0.63253   1.58133
    2395.00   4.379306     0.3374E+02  -0.60089   1.50222
    2405.00   4.381115     0.3181E+02  -0.62637   1.56592
    2415.00   4.382917     0.2919E+02  -0.66379   1.65948
    2425.00   4.384712     0.3108E+02  -0.63656   1.59141
    2435.00   4.386499     0.2899E+02  -0.66667   1.66667
    2445.00   4.388279     0.2923E+02  -0.66313   1.65783
    2455.00   4.390052     0.2776E+02  -0.68560   1.71399
    2465.00   4.391817     0.2728E+02  -0.69319   1.73298
    2475.00   4.393575     0.2633E+02  -0.70846   1.77116
    2485.00   4.395327     0.2213E+02  -0.78405   1.96011
    2495.00   4.397071     0.2048E+02  -0.81772   2.04429
    2505.00   4.398808     0.2080E+02  -0.81086   2.02715
    2515.00   4.400538     0.1988E+02  -0.83046   2.07616
    2525.00   4.402262     0.2038E+02  -0.81984   2.04961
    2535.00   4.403978     0.2043E+02  -0.81875   2.04688
    2545.00   4.405688     0.2027E+02  -0.82220   2.05550
    2555.00   4.407391     0.2035E+02  -0.82038   2.05094
    2565.00   4.409087     0.2067E+02  -0.81370   2.03426
    2575.00   4.410777     0.2100E+02  -0.80678   2.01694
    2585.00   4.412460     0.2070E+02  -0.81292   2.03229
    2595.00   4.414137     0.2079E+02  -0.81116   2.02789
    2605.00   4.415808     0.2083E+02  -0.81038   2.02596
    2615.00   4.417472     0.2053E+02  -0.81651   2.04128
    2625.00   4.419129     0.2027E+02  -0.82212   2.05530
    2635.00   4.420781     0.2026E+02  -0.82233   2.05583
    2645.00   4.422426     0.2009E+02  -0.82605   2.06513
    2655.00   4.424065     0.1987E+02  -0.83069   2.07672
    2665.00   4.425697     0.1959E+02  -0.83691   2.09226
    2675.00   4.427324     0.1977E+02  -0.83300   2.08251
    2685.00   4.428945     0.1957E+02  -0.83749   2.09373
    2695.00   4.430559     0.1923E+02  -0.84508   2.11270
    2705.00   4.432167     0.1922E+02  -0.84525   2.11312
    2715.00   4.433770     0.1906E+02  -0.84892   2.12231
    2725.00   4.435367     0.1895E+02  -0.85141   2.12854
    2735.00   4.436957     0.1865E+02  -0.85830   2.14574
    2745.00   4.438542     0.1861E+02  -0.85917   2.14791
    2755.00   4.440122     0.1851E+02  -0.86157   2.15392
    2765.00   4.441695     0.1829E+02  -0.86688   2.16721
    2775.00   4.443263     0.1804E+02  -0.87268   2.18171
    2785.00   4.444825     0.1798E+02  -0.87416   2.18540
    2795.00   4.446382     0.1790E+02  -0.87609   2.19022
    2805.00   4.447933     0.1772E+02  -0.88045   2.20111
    2815.00   4.449478     0.1750E+02  -0.88589   2.21472
    2825.00   4.451018     0.1739E+02  -0.88880   2.22199
    2835.00   4.452553     0.1729E+02  -0.89111   2.22779
    2845.00   4.454082     0.1710E+02  -0.89601   2.24003
    2855.00   4.455606     0.1694E+02  -0.90010   2.25025
    2865.00   4.457125     0.1680E+02  -0.90374   2.25935
    2875.00   4.458638     0.1666E+02  -0.90734   2.26836
    2885.00   4.460146     0.1650E+02  -0.91138   2.27845
    2895.00   4.461648     0.1636E+02  -0.91523   2.28807
    2905.00   4.463146     0.1620E+02  -0.91950   2.29874
    2915.00   4.464639     0.1607E+02  -0.92301   2.30753
    2925.00   4.466126     0.1583E+02  -0.92961   2.32403
    2935.00   4.467608     0.1577E+02  -0.93110   2.32776
    2945.00   4.469085     0.1560E+02  -0.93579   2.33948
    2955.00   4.470557     0.1546E+02  -0.93970   2.34924
    2965.00   4.472025     0.1535E+02  -0.94282   2.35706
    2975.00   4.473487     0.1521E+02  -0.94677   2.36694
    2985.00   4.474944     0.1504E+02  -0.95166   2.37916
    2995.00   4.476397     0.1489E+02  -0.95603   2.39007
    3005.00   4.477844     0.1479E+02  -0.95906   2.39765
    3015.00   4.479287     0.1474E+02  -0.96037   2.40093
    3025.00   4.480725     0.1464E+02  -0.96345   2.40861
    3035.00   4.482159     0.1455E+02  -0.96611   2.41528
    3045.00   4.483587     0.1451E+02  -0.96721   2.41803
    3055.00   4.485011     0.1442E+02  -0.96988   2.42469
    3065.00   4.486430     0.1435E+02  -0.97221   2.43053
    3075.00   4.487845     0.1430E+02  -0.97356   2.43389
    3085.00   4.489255     0.1420E+02  -0.97661   2.44152
    3095.00   4.490661     0.1417E+02  -0.97759   2.44397
    3105.00   4.492062     0.1413E+02  -0.97886   2.44716
    3115.00   4.493458     0.1399E+02  -0.98323   2.45806
    3125.00   4.494850     0.1396E+02  -0.98424   2.46060
    3135.00   4.496238     0.1388E+02  -0.98663   2.46657
    3145.00   4.497621     0.1379E+02  -0.98931   2.47328
    3155.00   4.499000     0.1370E+02  -0.99236   2.48090
    3165.00   4.500374     0.1359E+02  -0.99561   2.48903
    3175.00   4.501744     0.1355E+02  -0.99720   2.49299
    3185.00   4.503109     0.1348E+02  -0.99934   2.49836
    3195.00   4.504471     0.1343E+02  -1.00095   2.50237
    3210.00   4.506505     0.1331E+02  -1.00485   2.51212
    3230.00   4.509202     0.1314E+02  -1.01031   2.52578
    3250.00   4.511883     0.1300E+02  -1.01518   2.53794
    3270.00   4.514548     0.1282E+02  -1.02122   2.55304
    3290.00   4.517196     0.1261E+02  -1.02813   2.57032
    3310.00   4.519828     0.1246E+02  -1.03330   2.58325
    3330.00   4.522444     0.1227E+02  -1.04013   2.60032
    3350.00   4.525045     0.1210E+02  -1.04612   2.61529
    3370.00   4.527630     0.1191E+02  -1.05324   2.63310
    3390.00   4.530200     0.1169E+02  -1.06100   2.65250
    3410.00   4.532754     0.1148E+02  -1.06892   2.67229
    3430.00   4.535294     0.1131E+02  -1.07561   2.68903
    3450.00   4.537819     0.1111E+02  -1.08332   2.70829
    3470.00   4.540329     0.1090E+02  -1.09139   2.72846
    3490.00   4.542826     0.1072E+02  -1.09894   2.74734
    3510.00   4.545307     0.1053E+02  -1.10654   2.76635
    3530.00   4.547775     0.1033E+02  -1.11501   2.78753
    3550.00   4.550228     0.1015E+02  -1.12252   2.80629
    3570.00   4.552669     0.9961E+01  -1.13070   2.82675
    3590.00   4.555095     0.9782E+01  -1.13854   2.84634
    3610.00   4.557508     0.9615E+01  -1.14603   2.86509
    3630.00   4.559907     0.9434E+01  -1.15430   2.88575
    3650.00   4.562293     0.9247E+01  -1.16300   2.90750
    3670.00   4.564666     0.9074E+01  -1.17116   2.92791
    3690.00   4.567026     0.8886E+01  -1.18027   2.95066
    3710.00   4.569374     0.8714E+01  -1.18879   2.97197
    3730.00   4.571709     0.8574E+01  -1.19577   2.98944
    3750.00   4.574031     0.8390E+01  -1.20524   3.01309
    3770.00   4.576342     0.8261E+01  -1.21194   3.02986
    3790.00   4.578639     0.8099E+01  -1.22056   3.05139
    3810.00   4.580925     0.7954E+01  -1.22842   3.07104
    3830.00   4.583199     0.7817E+01  -1.23597   3.08992
    3850.00   4.585461     0.7674E+01  -1.24398   3.10994
    3870.00   4.587711     0.7512E+01  -1.25322   3.13305
    3890.00   4.589950     0.7379E+01  -1.26100   3.15250
    3910.00   4.592176     0.7247E+01  -1.26881   3.17203
    3930.00   4.594393     0.7112E+01  -1.27699   3.19249
    3950.00   4.596597     0.6960E+01  -1.28637   3.21592
    3970.00   4.598790     0.6837E+01  -1.29414   3.23536
    3990.00   4.600973     0.6688E+01  -1.30366   3.25916
    4010.00   4.603145     0.6580E+01  -1.31077   3.27693
    4030.00   4.605305     0.6468E+01  -1.31822   3.29555
    4050.00   4.607455     0.6340E+01  -1.32692   3.31729
    4070.00   4.609594     0.6227E+01  -1.33471   3.33678
    4090.00   4.611723     0.6113E+01  -1.34271   3.35678
    4110.00   4.613842     0.6011E+01  -1.35003   3.37508
    4130.00   4.615950     0.5914E+01  -1.35709   3.39272
    4150.00   4.618048     0.5810E+01  -1.36480   3.41200
    4170.00   4.620136     0.5713E+01  -1.37209   3.43023
    4190.00   4.622214     0.5613E+01  -1.37978   3.44946
    4210.00   4.624282     0.5514E+01  -1.38755   3.46887
    4230.00   4.626340     0.5440E+01  -1.39340   3.48350
    4250.00   4.628389     0.5341E+01  -1.40135   3.50337
    4270.00   4.630428     0.5260E+01  -1.40796   3.51989
    4290.00   4.632457     0.5064E+01  -1.42445   3.56113
    4310.00   4.634478     0.4856E+01  -1.44271   3.60679
    4330.00   4.636488     0.4821E+01  -1.44580   3.61450
    4350.00   4.638489     0.4659E+01  -1.46068   3.65170
    4370.00   4.640481     0.4550E+01  -1.47101   3.67753
    4390.00   4.642465     0.4463E+01  -1.47938   3.69845
    4410.00   4.644439     0.4331E+01  -1.49239   3.73098
    4430.00   4.646404     0.4264E+01  -1.49915   3.74788
    4450.00   4.648360     0.4192E+01  -1.50655   3.76637
    4470.00   4.650308     0.4081E+01  -1.51824   3.79561
    4490.00   4.652246     0.4050E+01  -1.52148   3.80370
    4510.00   4.654177     0.3965E+01  -1.53073   3.82682
    4530.00   4.656098     0.3882E+01  -1.53988   3.84969
    4550.00   4.658011     0.3846E+01  -1.54394   3.85985
    4570.00   4.659916     0.3795E+01  -1.54977   3.87442
    4590.00   4.661813     0.3703E+01  -1.56045   3.90112
    4610.00   4.663701     0.3683E+01  -1.56281   3.90704
    4630.00   4.665581     0.3618E+01  -1.57055   3.92636
    4650.00   4.667453     0.3575E+01  -1.57569   3.93923
    4670.00   4.669317     0.3541E+01  -1.57981   3.94953
    4690.00   4.671173     0.3479E+01  -1.58749   3.96872
    4710.00   4.673021     0.3424E+01  -1.59442   3.98604
    4730.00   4.674861     0.3407E+01  -1.59664   3.99160
    4750.00   4.676694     0.3341E+01  -1.60510   4.01275
    4770.00   4.678518     0.3296E+01  -1.61097   4.02744
    4790.00   4.680336     0.3260E+01  -1.61572   4.03931
    4810.00   4.682145     0.3193E+01  -1.62478   4.06194
    4830.00   4.683947     0.3180E+01  -1.62649   4.06623
    4850.00   4.685741     0.3128E+01  -1.63374   4.08436
    4870.00   4.687529     0.3074E+01  -1.64122   4.10304
    4890.00   4.689309     0.3032E+01  -1.64728   4.11820
    4910.00   4.691082     0.2994E+01  -1.65277   4.13194
    4930.00   4.692847     0.2949E+01  -1.65929   4.14822
    4950.00   4.694605     0.2903E+01  -1.66616   4.16541
    4970.00   4.696356     0.2875E+01  -1.67029   4.17573
    4990.00   4.698101     0.2835E+01  -1.67637   4.19092
    5010.00   4.699838     0.2798E+01  -1.68217   4.20543
    5030.00   4.701568     0.2760E+01  -1.68803   4.22007
    5050.00   4.703291     0.2711E+01  -1.69578   4.23946
    5070.00   4.705008     0.2684E+01  -1.70015   4.25037
    5090.00   4.706717     0.2648E+01  -1.70599   4.26498
    5110.00   4.708421     0.2607E+01  -1.71285   4.28213
    5130.00   4.710117     0.2583E+01  -1.71682   4.29204
    5150.00   4.711807     0.2541E+01  -1.72390   4.30974
    5170.00   4.713490     0.2521E+01  -1.72740   4.31850
    5190.00   4.715167     0.2481E+01  -1.73440   4.33600
    5210.00   4.716838     0.2452E+01  -1.73940   4.34851
    5230.00   4.718502     0.2414E+01  -1.74633   4.36584
    5250.00   4.720160     0.2390E+01  -1.75066   4.37664
    5270.00   4.721810     0.2370E+01  -1.75425   4.38563
    5290.00   4.723455     0.2326E+01  -1.76241   4.40602
    5310.00   4.725095     0.2296E+01  -1.76807   4.42016
    5330.00   4.726727     0.2272E+01  -1.77253   4.43132
    5350.00   4.728354     0.2244E+01  -1.77792   4.44480
    5370.00   4.729974     0.2218E+01  -1.78302   4.45754
    5390.00   4.731589     0.2192E+01  -1.78820   4.47049
    5410.00   4.733197     0.2165E+01  -1.79349   4.48372
    5430.00   4.734800     0.2130E+01  -1.80052   4.50131
    5450.00   4.736397     0.2114E+01  -1.80391   4.50978
    5470.00   4.737988     0.2082E+01  -1.81048   4.52620
    5490.00   4.739573     0.2059E+01  -1.81530   4.53824
    5510.00   4.741152     0.2032E+01  -1.82096   4.55240
    5530.00   4.742725     0.2025E+01  -1.82264   4.55659
    5550.00   4.744293     0.1982E+01  -1.83180   4.57949
    5570.00   4.745855     0.1970E+01  -1.83454   4.58635
    5590.00   4.747412     0.1941E+01  -1.84107   4.60267
    5610.00   4.748963     0.1922E+01  -1.84513   4.61284
    5630.00   4.750508     0.1892E+01  -1.85205   4.63013
    5650.00   4.752048     0.1877E+01  -1.85553   4.63883
    5670.00   4.753583     0.1855E+01  -1.86075   4.65189
    5690.00   4.755112     0.1826E+01  -1.86755   4.66887
    5710.00   4.756636     0.1813E+01  -1.87069   4.67672
    5730.00   4.758155     0.1790E+01  -1.87613   4.69033
    5750.00   4.759668     0.1769E+01  -1.88131   4.70327
    5770.00   4.761176     0.1746E+01  -1.88687   4.71718
    5790.00   4.762679     0.1731E+01  -1.89080   4.72701
    5810.00   4.764176     0.1706E+01  -1.89699   4.74249
    5830.00   4.765669     0.1687E+01  -1.90182   4.75455
    5850.00   4.767156     0.1668E+01  -1.90680   4.76699
    5870.00   4.768638     0.1644E+01  -1.91295   4.78238
    5890.00   4.770115     0.1626E+01  -1.91774   4.79435
    5910.00   4.771587     0.1609E+01  -1.92250   4.80624
    5930.00   4.773055     0.1591E+01  -1.92732   4.81829
    5950.00   4.774517     0.1570E+01  -1.93307   4.83268
    5970.00   4.775974     0.1555E+01  -1.93729   4.84323
    5990.00   4.777427     0.1537E+01  -1.94237   4.85593
    6010.00   4.778874     0.1519E+01  -1.94746   4.86864
    6030.00   4.780317     0.1501E+01  -1.95259   4.88146
    6050.00   4.781755     0.1481E+01  -1.95836   4.89590
    6070.00   4.783189     0.1465E+01  -1.96327   4.90817
    6090.00   4.784617     0.1447E+01  -1.96838   4.92095
    6110.00   4.786041     0.1430E+01  -1.97373   4.93433
    6130.00   4.787460     0.1415E+01  -1.97818   4.94544
    6150.00   4.788875     0.1400E+01  -1.98295   4.95736
    6170.00   4.790285     0.1385E+01  -1.98754   4.96885
    6190.00   4.791691     0.1369E+01  -1.99266   4.98165
    6210.00   4.793092     0.1354E+01  -1.99733   4.99332
    6230.00   4.794488     0.1337E+01  -2.00284   5.00710
    6250.00   4.795880     0.1320E+01  -2.00829   5.02071
    6270.00   4.797267     0.1305E+01  -2.01325   5.03313
    6290.00   4.798651     0.1292E+01  -2.01787   5.04467
    6310.00   4.800029     0.1276E+01  -2.02304   5.05759
    6330.00   4.801404     0.1264E+01  -2.02715   5.06789
    6350.00   4.802773     0.1249E+01  -2.03249   5.08123
    6370.00   4.804139     0.1237E+01  -2.03673   5.09181
    6390.00   4.805501     0.1221E+01  -2.04233   5.10582
    6420.00   4.807535     0.1201E+01  -2.04936   5.12340
    6460.00   4.810232     0.1174E+01  -2.05934   5.14834
    6500.00   4.812913     0.1148E+01  -2.06897   5.17243
    6540.00   4.815578     0.1123E+01  -2.07862   5.19654
    6580.00   4.818226     0.1099E+01  -2.08799   5.21998
    6620.00   4.820858     0.1075E+01  -2.09773   5.24434
    6660.00   4.823474     0.1051E+01  -2.10718   5.26795
    6700.00   4.826075     0.1029E+01  -2.11661   5.29153
    6740.00   4.828660     0.1006E+01  -2.12625   5.31561
    6780.00   4.831230     0.9849E+00  -2.13560   5.33899
    6820.00   4.833784     0.9637E+00  -2.14504   5.36261
    6860.00   4.836324     0.9436E+00  -2.15418   5.38546
    6900.00   4.838849     0.9235E+00  -2.16355   5.40889
    6940.00   4.841359     0.9041E+00  -2.17277   5.43192
    6980.00   4.843855     0.8852E+00  -2.18192   5.45481
    7020.00   4.846337     0.8665E+00  -2.19123   5.47808
    7060.00   4.848804     0.8487E+00  -2.20020   5.50051
    7100.00   4.851258     0.8311E+00  -2.20931   5.52326
    7140.00   4.853698     0.8142E+00  -2.21828   5.54569
    7180.00   4.856124     0.7974E+00  -2.22732   5.56830
    7220.00   4.858537     0.7812E+00  -2.23622   5.59054
    7260.00   4.860937     0.7653E+00  -2.24518   5.61294
    7300.00   4.863323     0.7499E+00  -2.25400   5.63499
    7340.00   4.865696     0.7346E+00  -2.26292   5.65730
    7380.00   4.868056     0.7201E+00  -2.27162   5.67904
    7420.00   4.870404     0.7052E+00  -2.28066   5.70164
    7460.00   4.872739     0.6913E+00  -2.28933   5.72333
    7500.00   4.875061     0.6778E+00  -2.29791   5.74476
    7540.00   4.877371     0.6643E+00  -2.30662   5.76656
    7580.00   4.879669     0.6517E+00  -2.31492   5.78729
    7620.00   4.881955     0.6390E+00  -2.32345   5.80863
    7660.00   4.884229     0.6267E+00  -2.33195   5.82987
    7700.00   4.886491     0.6145E+00  -2.34047   5.85118
    7740.00   4.888741     0.6028E+00  -2.34883   5.87207
    7780.00   4.890980     0.5913E+00  -2.35719   5.89297
    7820.00   4.893207     0.5800E+00  -2.36554   5.91385
    7860.00   4.895422     0.5691E+00  -2.37383   5.93458
    7900.00   4.897627     0.5583E+00  -2.38210   5.95526
    7940.00   4.899820     0.5478E+00  -2.39032   5.97581
    7980.00   4.902003     0.5377E+00  -2.39848   5.99620
    8020.00   4.904174     0.5275E+00  -2.40680   6.01700
    8060.00   4.906335     0.5177E+00  -2.41488   6.03720
    8100.00   4.908485     0.5083E+00  -2.42286   6.05716
    8140.00   4.910625     0.4989E+00  -2.43096   6.07741
    8180.00   4.912753     0.4899E+00  -2.43887   6.09717
    8220.00   4.914872     0.4810E+00  -2.44682   6.11704
    8260.00   4.916980     0.4723E+00  -2.45477   6.13694
    8300.00   4.919078     0.4638E+00  -2.46266   6.15665
    8340.00   4.921166     0.4554E+00  -2.47063   6.17658
    8380.00   4.923244     0.4472E+00  -2.47848   6.19619
    8420.00   4.925312     0.4394E+00  -2.48614   6.21536
    8460.00   4.927370     0.4316E+00  -2.49394   6.23486
    8500.00   4.929419     0.4240E+00  -2.50165   6.25411
    8540.00   4.931458     0.4166E+00  -2.50930   6.27325
    8580.00   4.933487     0.4093E+00  -2.51692   6.29230
    8620.00   4.935507     0.4022E+00  -2.52453   6.31133
    8660.00   4.937518     0.3953E+00  -2.53208   6.33021
    8700.00   4.939519     0.3884E+00  -2.53965   6.34914
    8740.00   4.941511     0.3818E+00  -2.54716   6.36790
    8780.00   4.943495     0.3752E+00  -2.55467   6.38667
    8820.00   4.945469     0.3688E+00  -2.56219   6.40547
    8860.00   4.947433     0.3626E+00  -2.56959   6.42398
    8900.00   4.949390     0.3564E+00  -2.57702   6.44255
    8940.00   4.951338     0.3505E+00  -2.58431   6.46076
    8980.00   4.953277     0.3445E+00  -2.59180   6.47949
    9020.00   4.955207     0.3389E+00  -2.59894   6.49734
    9060.00   4.957129     0.3333E+00  -2.60617   6.51542
    9100.00   4.959042     0.3276E+00  -2.61365   6.53413
    9140.00   4.960946     0.3223E+00  -2.62070   6.55176
    9180.00   4.962843     0.3170E+00  -2.62789   6.56972
    9220.00   4.964731     0.3119E+00  -2.63493   6.58732
    9260.00   4.966611     0.3068E+00  -2.64206   6.60516
    9300.00   4.968483     0.3019E+00  -2.64914   6.62284
    9340.00   4.970347     0.2970E+00  -2.65623   6.64057
    9380.00   4.972203     0.2922E+00  -2.66324   6.65809
    9420.00   4.974051     0.2876E+00  -2.67024   6.67560
    9460.00   4.975891     0.2830E+00  -2.67726   6.69315
    9500.00   4.977724     0.2785E+00  -2.68420   6.71050
    9540.00   4.979548     0.2741E+00  -2.69111   6.72779
    9580.00   4.981365     0.2698E+00  -2.69798   6.74495
    9620.00   4.983175     0.2655E+00  -2.70488   6.76219
    9660.00   4.984977     0.2614E+00  -2.71170   6.77925
    9700.00   4.986772     0.2573E+00  -2.71850   6.79625
    9740.00   4.988559     0.2532E+00  -2.72551   6.81377
    9780.00   4.990339     0.2494E+00  -2.73212   6.83030
    9820.00   4.992111     0.2456E+00  -2.73880   6.84700
    9860.00   4.993877     0.2418E+00  -2.74551   6.86377
    9900.00   4.995635     0.2381E+00  -2.75217   6.88043
    9940.00   4.997386     0.2345E+00  -2.75887   6.89717
    9980.00   4.999130     0.2309E+00  -2.76549   6.91372
   10020.00   5.000868     0.2275E+00  -2.77209   6.93022
   20000.00   5.301030     0.1577E-01  -3.93124   9.82810
   40000.00   5.602060     0.1031E-02  -5.11592  12.78981
   60000.00   5.778151     0.2063E-03  -5.81455  14.53636
   80000.00   5.903090     0.6564E-04  -6.31181  15.77953
  100000.00   6.000000     0.2696E-04  -6.69820  16.74549
  120000.00   6.079181     0.1302E-04  -7.01424  17.53559
  140000.00   6.146128     0.7036E-05  -7.28166  18.20416
  160000.00   6.204120     0.4126E-05  -7.51344  18.78360
