age =    9.0    [Fe/H] =    0.25

wavele(nm) log wave(A)   Hlam       log(Hlam/Hlam(V))  Hlam(mag(V)) 
      90.50   2.956649     0.7680E-14 -16.31643  40.79109
      91.50   2.961421     0.1705E-12 -14.96995  37.42487
      92.50   2.966142     0.4141E-11 -13.58465  33.96162
      93.50   2.970812     0.5866E-11 -13.43341  33.58353
      94.50   2.975432     0.8783E-11 -13.25815  33.14537
      95.50   2.980003     0.1338E-10 -13.07542  32.68855
      96.50   2.984527     0.2027E-10 -12.89491  32.23729
      97.50   2.989005     0.2775E-10 -12.75852  31.89630
      98.50   2.993436     0.3945E-10 -12.60576  31.51441
      99.50   2.997823     0.5442E-10 -12.46602  31.16504
     100.50   3.002166     0.8255E-10 -12.28505  30.71263
     101.50   3.006466     0.1150E-09 -12.14103  30.35256
     102.50   3.010724     0.1381E-09 -12.06154  30.15386
     103.50   3.014940     0.2240E-09 -11.85152  29.62881
     104.50   3.019116     0.3130E-09 -11.70623  29.26558
     105.50   3.023252     0.4041E-09 -11.59528  28.98821
     106.50   3.027350     0.5559E-09 -11.45677  28.64193
     107.50   3.031409     0.7595E-09 -11.32123  28.30306
     108.50   3.035430     0.1026E-08 -11.19059  27.97649
     109.50   3.039414     0.1291E-08 -11.09095  27.72738
     110.50   3.043362     0.2833E-08 -10.74946  26.87365
     111.50   3.047275     0.4216E-08 -10.57690  26.44226
     112.50   3.051152     0.5992E-08 -10.42423  26.06057
     113.50   3.054996     0.8695E-08 -10.26249  25.65623
     114.50   3.058805     0.1165E-07 -10.13532  25.33831
     115.50   3.062582     0.1424E-07 -10.04831  25.12077
     116.50   3.066326     0.1934E-07  -9.91540  24.78850
     117.50   3.070038     0.2512E-07  -9.80172  24.50430
     118.50   3.073718     0.2957E-07  -9.73088  24.32720
     119.50   3.077368     0.3006E-07  -9.72381  24.30953
     120.50   3.080987     0.3667E-07  -9.63752  24.09380
     121.50   3.084576     0.1708E-07  -9.96925  24.92312
     122.50   3.088136     0.5322E-07  -9.47566  23.68916
     123.50   3.091667     0.8279E-07  -9.28378  23.20945
     124.50   3.095169     0.1051E-06  -9.18000  22.95000
     125.50   3.098644     0.1253E-06  -9.10371  22.75928
     126.50   3.102091     0.1429E-06  -9.04669  22.61672
     127.50   3.105510     0.1738E-06  -8.96173  22.40432
     128.50   3.108903     0.1958E-06  -8.90990  22.27475
     129.50   3.112270     0.2393E-06  -8.82277  22.05694
     130.50   3.115611     0.2632E-06  -8.78145  21.95363
     131.50   3.118926     0.3290E-06  -8.68452  21.71129
     132.50   3.122216     0.3524E-06  -8.65477  21.63693
     133.50   3.125481     0.4013E-06  -8.59832  21.49579
     134.50   3.128722     0.4842E-06  -8.51679  21.29197
     135.50   3.131939     0.5817E-06  -8.43708  21.09269
     136.50   3.135133     0.6402E-06  -8.39547  20.98867
     137.50   3.138303     0.7162E-06  -8.34676  20.86689
     138.50   3.141450     0.8065E-06  -8.29517  20.73792
     139.50   3.144574     0.9288E-06  -8.23387  20.58468
     140.50   3.147676     0.1145E-05  -8.14286  20.35714
     141.50   3.150756     0.1333E-05  -8.07689  20.19222
     142.50   3.153815     0.1570E-05  -8.00597  20.01493
     143.50   3.156852     0.1895E-05  -7.92416  19.81041
     144.20   3.158965     0.2385E-05  -7.82434  19.56084
     144.70   3.160469     0.2241E-05  -7.85125  19.62813
     145.50   3.162863     0.2634E-05  -7.78121  19.45301
     146.50   3.165838     0.3372E-05  -7.67388  19.18471
     147.50   3.168792     0.3904E-05  -7.61027  19.02569
     148.50   3.171726     0.4302E-05  -7.56810  18.92025
     149.50   3.174641     0.5553E-05  -7.45726  18.64315
     150.50   3.177536     0.6805E-05  -7.36897  18.42242
     151.20   3.179552     0.5600E-05  -7.45357  18.63392
     151.70   3.180986     0.6933E-05  -7.36087  18.40218
     152.50   3.183270     0.1645E-04  -6.98571  17.46427
     153.50   3.186108     0.2804E-04  -6.75407  16.88518
     154.50   3.188928     0.2326E-04  -6.83520  17.08799
     155.50   3.191730     0.3966E-04  -6.60346  16.50865
     156.50   3.194514     0.3791E-04  -6.62301  16.55751
     157.50   3.197281     0.8016E-04  -6.29781  15.74453
     158.50   3.200029     0.9811E-04  -6.21006  15.52516
     159.50   3.202761     0.1160E-03  -6.13745  15.34364
     160.50   3.205475     0.1235E-03  -6.11014  15.27534
     161.50   3.208173     0.1349E-03  -6.07171  15.17928
     162.50   3.210853     0.1537E-03  -6.01522  15.03805
     163.50   3.213518     0.1880E-03  -5.92767  14.81917
     164.50   3.216166     0.2723E-03  -5.76680  14.41701
     165.50   3.218798     0.1836E-03  -5.93794  14.84485
     166.50   3.221414     0.3251E-03  -5.68981  14.22452
     167.20   3.223236     0.2256E-03  -5.84839  14.62098
     167.70   3.224533     0.9591E-03  -5.21990  13.04975
     168.50   3.226600     0.1074E-02  -5.17080  12.92700
     169.50   3.229170     0.1377E-02  -5.06294  12.65736
     170.50   3.231725     0.1473E-02  -5.03367  12.58417
     171.50   3.234264     0.1398E-02  -5.05626  12.64064
     172.50   3.236789     0.1872E-02  -4.92947  12.32367
     173.50   3.239300     0.2260E-02  -4.84764  12.11911
     174.50   3.241796     0.3193E-02  -4.69752  11.74381
     175.50   3.244277     0.4314E-02  -4.56694  11.41735
     176.50   3.246745     0.4128E-02  -4.58605  11.46512
     177.50   3.249198     0.4399E-02  -4.55839  11.39599
     178.50   3.251638     0.5977E-02  -4.42526  11.06315
     179.50   3.254065     0.7045E-02  -4.35390  10.88475
     180.50   3.256477     0.7924E-02  -4.30282  10.75705
     181.50   3.258877     0.7406E-02  -4.33220  10.83049
     182.50   3.261263     0.9764E-02  -4.21215  10.53038
     183.50   3.263636     0.1005E-01  -4.19971  10.49926
     184.50   3.265996     0.7797E-02  -4.30982  10.77456
     185.50   3.268344     0.1100E-01  -4.16031  10.40077
     186.50   3.270679     0.1311E-01  -4.08402  10.21005
     187.50   3.273001     0.1428E-01  -4.04715  10.11788
     188.50   3.275311     0.1548E-01  -4.01211  10.03027
     189.50   3.277609     0.2060E-01  -3.88783   9.71958
     190.50   3.279895     0.2009E-01  -3.89885   9.74712
     191.50   3.282169     0.2270E-01  -3.84567   9.61419
     192.50   3.284431     0.2307E-01  -3.83875   9.59687
     193.50   3.286681     0.1597E-01  -3.99855   9.99637
     194.50   3.288920     0.3018E-01  -3.72212   9.30530
     195.50   3.291147     0.3228E-01  -3.69281   9.23204
     196.70   3.293804     0.4186E-01  -3.58001   8.95002
     197.60   3.295787     0.4129E-01  -3.58597   8.96493
     198.40   3.297542     0.4761E-01  -3.52411   8.81027
     199.50   3.299943     0.4857E-01  -3.51540   8.78851
     200.50   3.302114     0.4816E-01  -3.51910   8.79774
     201.50   3.304275     0.5351E-01  -3.47338   8.68344
     202.50   3.306425     0.4407E-01  -3.55762   8.89406
     203.50   3.308564     0.6039E-01  -3.42082   8.55205
     204.50   3.310693     0.6963E-01  -3.35896   8.39739
     205.50   3.312812     0.7389E-01  -3.33317   8.33292
     206.50   3.314920     0.7424E-01  -3.33116   8.32791
     207.40   3.316809     0.7963E-01  -3.30071   8.25178
     207.80   3.317646     0.1851E+00  -2.93426   7.33566
     208.50   3.319106     0.2434E+00  -2.81553   7.03883
     209.50   3.321184     0.2307E+00  -2.83874   7.09684
     210.50   3.323252     0.2382E+00  -2.82482   7.06205
     211.50   3.325310     0.2798E+00  -2.75487   6.88717
     212.50   3.327359     0.2521E+00  -2.80013   7.00033
     213.50   3.329398     0.2677E+00  -2.77419   6.93547
     214.50   3.331427     0.3363E+00  -2.67508   6.68770
     215.50   3.333447     0.3153E+00  -2.70306   6.75765
     216.50   3.335458     0.2949E+00  -2.73212   6.83030
     217.50   3.337459     0.2931E+00  -2.73470   6.83674
     218.50   3.339452     0.3893E+00  -2.61149   6.52872
     219.50   3.341434     0.3894E+00  -2.61140   6.52850
     220.50   3.343409     0.3982E+00  -2.60172   6.50430
     221.50   3.345374     0.3155E+00  -2.70274   6.75685
     222.50   3.347330     0.3993E+00  -2.60043   6.50106
     223.50   3.349277     0.5604E+00  -2.45329   6.13322
     224.50   3.351216     0.5502E+00  -2.46126   6.15316
     225.50   3.353147     0.4436E+00  -2.55475   6.38687
     226.50   3.355068     0.3705E+00  -2.63296   6.58240
     227.50   3.356982     0.4225E+00  -2.57598   6.43994
     228.50   3.358886     0.6372E+00  -2.39752   5.99381
     229.50   3.360783     0.5211E+00  -2.48486   6.21216
     230.50   3.362671     0.6097E+00  -2.41665   6.04161
     231.50   3.364551     0.5594E+00  -2.45403   6.13509
     232.50   3.366423     0.5293E+00  -2.47805   6.19513
     233.50   3.368287     0.5215E+00  -2.48453   6.21131
     234.50   3.370143     0.3472E+00  -2.66116   6.65290
     235.50   3.371991     0.6079E+00  -2.41793   6.04482
     236.50   3.373831     0.4108E+00  -2.58812   6.47031
     237.50   3.375664     0.5177E+00  -2.48773   6.21932
     238.50   3.377488     0.3518E+00  -2.65549   6.63874
     239.50   3.379306     0.4360E+00  -2.56226   6.40565
     240.50   3.381115     0.4779E+00  -2.52242   6.30605
     241.50   3.382917     0.4759E+00  -2.52425   6.31063
     242.50   3.384712     0.7988E+00  -2.29933   5.74831
     243.50   3.386499     0.8589E+00  -2.26783   5.66956
     244.50   3.388279     0.1058E+01  -2.17746   5.44366
     245.50   3.390052     0.1155E+01  -2.13909   5.34773
     246.50   3.391817     0.9083E+00  -2.24356   5.60891
     247.50   3.393575     0.8163E+00  -2.28992   5.72479
     248.50   3.395326     0.3550E+00  -2.65157   6.62894
     249.50   3.397071     0.5435E+00  -2.46655   6.16637
     250.50   3.398808     0.9245E+00  -2.23589   5.58971
     251.30   3.400192     0.4306E+00  -2.56775   6.41936
     251.80   3.401056     0.3010E+00  -2.72323   6.80807
     252.50   3.402261     0.3509E+00  -2.65661   6.64152
     253.50   3.403978     0.7834E+00  -2.30777   5.76941
     254.50   3.405688     0.8354E+00  -2.27990   5.69975
     255.50   3.407391     0.2023E+01  -1.89581   4.73953
     256.50   3.409087     0.1380E+01  -2.06189   5.15472
     257.50   3.410777     0.1973E+01  -1.90658   4.76645
     258.50   3.412461     0.1762E+01  -1.95576   4.88940
     259.50   3.414137     0.1630E+01  -1.98952   4.97380
     260.50   3.415808     0.1465E+01  -2.03592   5.08979
     261.50   3.417472     0.1307E+01  -2.08559   5.21397
     262.50   3.419129     0.1864E+01  -1.93144   4.82861
     263.50   3.420781     0.3825E+01  -1.61911   4.04778
     264.50   3.422426     0.4992E+01  -1.50348   3.75871
     265.50   3.424065     0.8494E+01  -1.27267   3.18166
     266.50   3.425697     0.4477E+01  -1.55081   3.87704
     267.50   3.427324     0.5091E+01  -1.49497   3.73744
     268.50   3.428944     0.6498E+01  -1.38901   3.47251
     269.50   3.430559     0.4128E+01  -1.58600   3.96499
     270.50   3.432167     0.5783E+01  -1.43964   3.59911
     271.50   3.433770     0.3833E+01  -1.61828   4.04571
     272.50   3.435366     0.2371E+01  -1.82688   4.56720
     273.50   3.436957     0.3446E+01  -1.66450   4.16126
     274.50   3.438542     0.2127E+01  -1.87398   4.68496
     275.50   3.440122     0.3037E+01  -1.71926   4.29816
     276.50   3.441695     0.4184E+01  -1.58016   3.95040
     277.50   3.443263     0.4449E+01  -1.55348   3.88369
     278.50   3.444825     0.2602E+01  -1.78639   4.46597
     279.50   3.446382     0.1167E+01  -2.13472   5.33680
     280.50   3.447933     0.1446E+01  -2.04171   5.10428
     281.50   3.449478     0.3963E+01  -1.60378   4.00944
     282.50   3.451018     0.5676E+01  -1.44774   3.61934
     283.50   3.452553     0.4976E+01  -1.50492   3.76230
     284.50   3.454082     0.2867E+01  -1.74432   4.36081
     285.50   3.455606     0.1371E+01  -2.06490   5.16224
     286.50   3.457125     0.4423E+01  -1.55602   3.89004
     287.50   3.458638     0.7908E+01  -1.30371   3.25927
     288.50   3.460146     0.7396E+01  -1.33279   3.33197
     289.50   3.461648     0.1043E+02  -1.18354   2.95885
     291.00   3.463893     0.1571E+02  -1.00555   2.51387
     293.00   3.466868     0.1398E+02  -1.05631   2.64078
     295.00   3.469822     0.1303E+02  -1.08699   2.71748
     297.00   3.472756     0.1377E+02  -1.06280   2.65700
     299.00   3.475671     0.1437E+02  -1.04440   2.61099
     301.00   3.478566     0.1387E+02  -1.05969   2.64924
     303.00   3.481443     0.1602E+02  -0.99712   2.49279
     305.00   3.484300     0.1646E+02  -0.98543   2.46358
     307.00   3.487138     0.1841E+02  -0.93668   2.34170
     309.00   3.489959     0.1675E+02  -0.97769   2.44423
     311.00   3.492760     0.2148E+02  -0.86981   2.17452
     313.00   3.495544     0.1905E+02  -0.92194   2.30484
     315.00   3.498311     0.1970E+02  -0.90737   2.26842
     317.00   3.501059     0.2275E+02  -0.84487   2.11217
     319.00   3.503791     0.1881E+02  -0.92737   2.31844
     321.00   3.506505     0.2095E+02  -0.88069   2.20172
     323.00   3.509202     0.1744E+02  -0.96027   2.40068
     325.00   3.511883     0.2675E+02  -0.77444   1.93609
     327.00   3.514548     0.3203E+02  -0.69622   1.74056
     329.00   3.517196     0.3156E+02  -0.70259   1.75648
     331.00   3.519828     0.2854E+02  -0.74631   1.86578
     333.00   3.522444     0.3009E+02  -0.72341   1.80854
     335.00   3.525045     0.2909E+02  -0.73801   1.84502
     337.00   3.527630     0.2027E+02  -0.89497   2.23743
     339.00   3.530200     0.2383E+02  -0.82464   2.06160
     341.00   3.532754     0.2477E+02  -0.80790   2.01975
     343.00   3.535294     0.2634E+02  -0.78114   1.95285
     345.00   3.537819     0.2938E+02  -0.73379   1.83448
     347.00   3.540329     0.3094E+02  -0.71121   1.77804
     349.00   3.542825     0.3569E+02  -0.64922   1.62304
     351.00   3.545307     0.3830E+02  -0.61863   1.54657
     353.00   3.547775     0.3303E+02  -0.68292   1.70731
     355.00   3.550228     0.3771E+02  -0.62527   1.56317
     357.00   3.552668     0.2485E+02  -0.80639   2.01597
     359.00   3.555094     0.2678E+02  -0.77394   1.93485
     361.00   3.557507     0.3577E+02  -0.64821   1.62053
     363.00   3.559907     0.3824E+02  -0.61927   1.54818
     364.00   3.561101     0.3887E+02  -0.61219   1.53047
     365.00   3.562293     0.4358E+02  -0.56248   1.40620
     367.00   3.564666     0.4816E+02  -0.51908   1.29770
     369.00   3.567026     0.4127E+02  -0.58611   1.46529
     371.00   3.569374     0.4280E+02  -0.57032   1.42579
     373.00   3.571709     0.2483E+02  -0.80687   2.01717
     375.00   3.574031     0.2897E+02  -0.73990   1.84975
     377.00   3.576341     0.4121E+02  -0.58680   1.46700
     379.00   3.578639     0.4227E+02  -0.57578   1.43946
     381.00   3.580925     0.3750E+02  -0.62780   1.56949
     383.00   3.583199     0.1898E+02  -0.92351   2.30878
     385.00   3.585461     0.2643E+02  -0.77972   1.94930
     387.00   3.587711     0.2654E+02  -0.77794   1.94484
     389.00   3.589950     0.3883E+02  -0.61257   1.53143
     391.00   3.592177     0.4921E+02  -0.50973   1.27431
     393.00   3.594393     0.2201E+02  -0.85916   2.14791
     395.00   3.596597     0.4097E+02  -0.58928   1.47320
     397.00   3.598790     0.2798E+02  -0.75499   1.88748
     399.00   3.600973     0.6885E+02  -0.36389   0.90972
     401.00   3.603144     0.7820E+02  -0.30858   0.77146
     403.00   3.605305     0.7683E+02  -0.31622   0.79055
     405.00   3.607455     0.7310E+02  -0.33789   0.84472
     407.00   3.609594     0.6730E+02  -0.37376   0.93439
     409.00   3.611723     0.8980E+02  -0.24851   0.62126
     411.00   3.613842     0.8389E+02  -0.27807   0.69518
     413.00   3.615950     0.7900E+02  -0.30414   0.76034
     415.00   3.618048     0.7689E+02  -0.31590   0.78976
     417.00   3.620136     0.7857E+02  -0.30651   0.76626
     419.00   3.622214     0.7782E+02  -0.31070   0.77675
     421.00   3.624282     0.7902E+02  -0.30402   0.76004
     423.00   3.626340     0.7120E+02  -0.34928   0.87320
     425.00   3.628389     0.8197E+02  -0.28812   0.72029
     427.00   3.630428     0.7655E+02  -0.31781   0.79453
     429.00   3.632457     0.7176E+02  -0.34590   0.86475
     431.00   3.634477     0.6302E+02  -0.40230   1.00576
     433.00   3.636488     0.9740E+02  -0.21321   0.53302
     435.00   3.638489     0.9964E+02  -0.20335   0.50837
     437.00   3.640481     0.1087E+03  -0.16541   0.41353
     439.00   3.642465     0.9275E+02  -0.23444   0.58610
     441.00   3.644439     0.9854E+02  -0.20817   0.52044
     443.00   3.646404     0.1072E+03  -0.17148   0.42870
     445.00   3.648360     0.1096E+03  -0.16185   0.40463
     447.00   3.650307     0.1198E+03  -0.12327   0.30819
     449.00   3.652246     0.1244E+03  -0.10700   0.26751
     451.00   3.654176     0.1471E+03  -0.03406   0.08515
     453.00   3.656098     0.1234E+03  -0.11029   0.27572
     455.00   3.658011     0.1316E+03  -0.08244   0.20610
     457.00   3.659916     0.1458E+03  -0.03799   0.09498
     459.00   3.661813     0.1359E+03  -0.06853   0.17132
     461.00   3.663701     0.1403E+03  -0.05478   0.13696
     463.00   3.665581     0.1352E+03  -0.07070   0.17676
     465.00   3.667453     0.1377E+03  -0.06290   0.15725
     467.00   3.669317     0.1465E+03  -0.03599   0.08998
     469.00   3.671173     0.1432E+03  -0.04582   0.11454
     471.00   3.673021     0.1385E+03  -0.06039   0.15098
     473.00   3.674861     0.1441E+03  -0.04320   0.10801
     475.00   3.676694     0.1485E+03  -0.03010   0.07524
     477.00   3.678518     0.1440E+03  -0.04355   0.10888
     479.00   3.680336     0.1462E+03  -0.03671   0.09179
     481.00   3.682145     0.1471E+03  -0.03408   0.08519
     483.00   3.683947     0.1545E+03  -0.01287   0.03217
     485.00   3.685742     0.1463E+03  -0.03661   0.09153
     487.00   3.687529     0.1339E+03  -0.07494   0.18736
     489.00   3.689309     0.1495E+03  -0.02720   0.06799
     491.00   3.691082     0.1504E+03  -0.02450   0.06126
     493.00   3.692847     0.1469E+03  -0.03463   0.08657
     495.00   3.694605     0.1534E+03  -0.01608   0.04020
     497.00   3.696356     0.1454E+03  -0.03933   0.09834
     499.00   3.698101     0.1337E+03  -0.07566   0.18914
     501.00   3.699838     0.1238E+03  -0.10917   0.27293
     503.00   3.701568     0.1346E+03  -0.07275   0.18189
     505.00   3.703291     0.1344E+03  -0.07325   0.18312
     507.00   3.705008     0.1412E+03  -0.05205   0.13013
     509.00   3.706718     0.1317E+03  -0.08231   0.20577
     511.00   3.708421     0.1365E+03  -0.06679   0.16697
     513.00   3.710117     0.1308E+03  -0.08515   0.21287
     515.00   3.711807     0.1257E+03  -0.10256   0.25639
     517.00   3.713490     0.1084E+03  -0.16687   0.41718
     519.00   3.715167     0.1148E+03  -0.14181   0.35452
     521.00   3.716838     0.1294E+03  -0.08969   0.22423
     523.00   3.718502     0.1474E+03  -0.03328   0.08320
     525.00   3.720159     0.1566E+03  -0.00686   0.01715
     527.00   3.721811     0.1331E+03  -0.07746   0.19366
     529.00   3.723456     0.1614E+03   0.00605  -0.01513
     531.00   3.725095     0.1751E+03   0.04163  -0.10407
     533.00   3.726727     0.1477E+03  -0.03245   0.08111
     535.00   3.728354     0.1675E+03   0.02228  -0.05570
     537.00   3.729974     0.1657E+03   0.01750  -0.04376
     539.00   3.731589     0.1609E+03   0.00488  -0.01219
     541.00   3.733197     0.1590E+03  -0.00038   0.00095
     543.00   3.734800     0.1621E+03   0.00805  -0.02013
     545.00   3.736397     0.1648E+03   0.01516  -0.03790
     547.00   3.737987     0.1603E+03   0.00316  -0.00790
     549.00   3.739572     0.1617E+03   0.00706  -0.01765
     551.00   3.741152     0.1591E+03   0.00000   0.00000
     553.00   3.742725     0.1682E+03   0.02412  -0.06030
     555.00   3.744293     0.1723E+03   0.03442  -0.08605
     557.00   3.745855     0.1686E+03   0.02515  -0.06288
     559.00   3.747412     0.1627E+03   0.00962  -0.02406
     561.00   3.748963     0.1692E+03   0.02673  -0.06683
     563.00   3.750508     0.1679E+03   0.02335  -0.05838
     565.00   3.752048     0.1724E+03   0.03468  -0.08670
     567.00   3.753583     0.1680E+03   0.02357  -0.05892
     569.00   3.755112     0.1756E+03   0.04281  -0.10703
     571.00   3.756636     0.1687E+03   0.02524  -0.06311
     573.00   3.758155     0.1873E+03   0.07077  -0.17692
     575.00   3.759668     0.1784E+03   0.04965  -0.12413
     577.00   3.761176     0.1811E+03   0.05618  -0.14045
     579.00   3.762679     0.1722E+03   0.03431  -0.08577
     581.00   3.764176     0.1818E+03   0.05789  -0.14472
     583.00   3.765669     0.1887E+03   0.07392  -0.18480
     585.00   3.767156     0.1797E+03   0.05280  -0.13200
     587.00   3.768638     0.1784E+03   0.04951  -0.12378
     589.00   3.770115     0.1468E+03  -0.03494   0.08735
     591.00   3.771587     0.1739E+03   0.03848  -0.09619
     593.00   3.773055     0.1772E+03   0.04680  -0.11700
     595.00   3.774517     0.1779E+03   0.04832  -0.12080
     597.00   3.775974     0.1827E+03   0.05990  -0.14976
     599.00   3.777427     0.1792E+03   0.05150  -0.12876
     601.00   3.778874     0.1771E+03   0.04641  -0.11603
     603.00   3.780317     0.1843E+03   0.06386  -0.15964
     605.00   3.781755     0.1889E+03   0.07440  -0.18601
     607.00   3.783189     0.1888E+03   0.07412  -0.18530
     609.00   3.784617     0.1805E+03   0.05477  -0.13692
     611.00   3.786041     0.1819E+03   0.05807  -0.14518
     613.00   3.787461     0.1697E+03   0.02797  -0.06992
     615.00   3.788875     0.1756E+03   0.04277  -0.10693
     617.00   3.790285     0.1605E+03   0.00360  -0.00899
     619.00   3.791691     0.1735E+03   0.03744  -0.09359
     621.00   3.793092     0.1707E+03   0.03037  -0.07592
     623.00   3.794488     0.1639E+03   0.01270  -0.03176
     625.00   3.795880     0.1588E+03  -0.00086   0.00216
     627.00   3.797267     0.1683E+03   0.02431  -0.06077
     629.00   3.798651     0.1742E+03   0.03923  -0.09808
     631.00   3.800029     0.1695E+03   0.02740  -0.06850
     633.00   3.801404     0.1732E+03   0.03669  -0.09172
     635.00   3.802774     0.1732E+03   0.03680  -0.09200
     637.00   3.804139     0.1731E+03   0.03643  -0.09108
     639.00   3.805501     0.1794E+03   0.05193  -0.12982
     641.00   3.806858     0.1755E+03   0.04247  -0.10618
     643.00   3.808211     0.1775E+03   0.04739  -0.11847
     645.00   3.809560     0.1766E+03   0.04516  -0.11291
     647.00   3.810904     0.1765E+03   0.04493  -0.11233
     649.00   3.812245     0.1731E+03   0.03660  -0.09151
     651.00   3.813581     0.1814E+03   0.05687  -0.14218
     653.00   3.814913     0.1817E+03   0.05757  -0.14393
     655.00   3.816241     0.1782E+03   0.04907  -0.12267
     657.00   3.817565     0.1711E+03   0.03146  -0.07865
     659.00   3.818885     0.1779E+03   0.04832  -0.12081
     661.00   3.820201     0.1794E+03   0.05210  -0.13025
     663.00   3.821513     0.1760E+03   0.04362  -0.10906
     665.00   3.822822     0.1747E+03   0.04047  -0.10117
     667.00   3.824126     0.1686E+03   0.02497  -0.06242
     669.00   3.825426     0.1696E+03   0.02762  -0.06904
     671.00   3.826723     0.1603E+03   0.00308  -0.00771
     673.00   3.828015     0.1652E+03   0.01630  -0.04076
     675.00   3.829304     0.1616E+03   0.00676  -0.01690
     677.00   3.830589     0.1627E+03   0.00966  -0.02414
     679.00   3.831870     0.1602E+03   0.00278  -0.00696
     681.00   3.833147     0.1624E+03   0.00872  -0.02179
     683.00   3.834421     0.1657E+03   0.01750  -0.04376
     685.00   3.835690     0.1612E+03   0.00549  -0.01374
     687.00   3.836957     0.1652E+03   0.01633  -0.04082
     689.00   3.838219     0.1697E+03   0.02793  -0.06982
     691.00   3.839478     0.1715E+03   0.03245  -0.08113
     693.00   3.840733     0.1707E+03   0.03046  -0.07614
     695.00   3.841985     0.1725E+03   0.03494  -0.08736
     697.00   3.843233     0.1773E+03   0.04701  -0.11752
     699.00   3.844477     0.1782E+03   0.04919  -0.12298
     701.00   3.845718     0.1779E+03   0.04850  -0.12124
     703.00   3.846955     0.1808E+03   0.05543  -0.13858
     705.00   3.848189     0.1778E+03   0.04806  -0.12015
     707.00   3.849419     0.1670E+03   0.02105  -0.05263
     709.00   3.850646     0.1559E+03  -0.00883   0.02208
     711.00   3.851870     0.1491E+03  -0.02820   0.07050
     713.00   3.853090     0.1444E+03  -0.04228   0.10570
     715.00   3.854306     0.1437E+03  -0.04432   0.11080
     717.00   3.855519     0.1468E+03  -0.03512   0.08780
     719.00   3.856729     0.1437E+03  -0.04442   0.11105
     721.00   3.857935     0.1490E+03  -0.02854   0.07135
     723.00   3.859138     0.1549E+03  -0.01177   0.02943
     725.00   3.860338     0.1580E+03  -0.00317   0.00794
     727.00   3.861534     0.1608E+03   0.00464  -0.01159
     729.00   3.862728     0.1615E+03   0.00646  -0.01616
     731.00   3.863917     0.1711E+03   0.03139  -0.07847
     733.00   3.865104     0.1718E+03   0.03335  -0.08338
     735.00   3.866287     0.1786E+03   0.05018  -0.12546
     737.00   3.867467     0.1869E+03   0.06988  -0.17469
     739.00   3.868644     0.1830E+03   0.06079  -0.15198
     741.00   3.869818     0.1882E+03   0.07279  -0.18198
     743.00   3.870989     0.1945E+03   0.08706  -0.21765
     745.00   3.872156     0.1930E+03   0.08388  -0.20969
     747.00   3.873321     0.2024E+03   0.10447  -0.26116
     749.00   3.874482     0.2018E+03   0.10311  -0.25778
     751.00   3.875640     0.2039E+03   0.10773  -0.26932
     753.00   3.876795     0.2106E+03   0.12164  -0.30410
     755.00   3.877947     0.2131E+03   0.12688  -0.31720
     757.00   3.879096     0.2142E+03   0.12913  -0.32283
     759.00   3.880242     0.2035E+03   0.10685  -0.26713
     761.00   3.881385     0.1939E+03   0.08575  -0.21437
     763.00   3.882524     0.1831E+03   0.06100  -0.15250
     765.00   3.883662     0.1719E+03   0.03344  -0.08359
     767.00   3.884795     0.1589E+03  -0.00071   0.00178
     769.00   3.885926     0.1626E+03   0.00933  -0.02332
     771.00   3.887054     0.1595E+03   0.00109  -0.00271
     773.00   3.888180     0.1595E+03   0.00101  -0.00254
     775.00   3.889302     0.1585E+03  -0.00179   0.00447
     777.00   3.890421     0.1615E+03   0.00627  -0.01568
     779.00   3.891537     0.1631E+03   0.01059  -0.02647
     781.00   3.892651     0.1634E+03   0.01153  -0.02884
     783.00   3.893762     0.1634E+03   0.01148  -0.02869
     785.00   3.894870     0.1607E+03   0.00412  -0.01030
     787.00   3.895975     0.1652E+03   0.01618  -0.04046
     789.00   3.897077     0.1644E+03   0.01405  -0.03513
     791.00   3.898176     0.1594E+03   0.00082  -0.00204
     793.00   3.899273     0.1619E+03   0.00737  -0.01844
     795.00   3.900367     0.1616E+03   0.00674  -0.01686
     797.00   3.901458     0.1677E+03   0.02264  -0.05660
     799.00   3.902547     0.1684E+03   0.02448  -0.06119
     801.00   3.903632     0.1738E+03   0.03826  -0.09564
     803.00   3.904716     0.1760E+03   0.04374  -0.10934
     805.00   3.905796     0.1761E+03   0.04408  -0.11020
     807.00   3.906873     0.1836E+03   0.06213  -0.15533
     809.00   3.907948     0.1835E+03   0.06191  -0.15477
     811.00   3.909021     0.1870E+03   0.07004  -0.17511
     813.00   3.910090     0.1968E+03   0.09233  -0.23082
     815.00   3.911158     0.2025E+03   0.10464  -0.26160
     817.00   3.912222     0.2058E+03   0.11161  -0.27903
     819.00   3.913284     0.2023E+03   0.10427  -0.26068
     821.00   3.914343     0.1894E+03   0.07569  -0.18923
     823.00   3.915400     0.1904E+03   0.07788  -0.19470
     825.00   3.916454     0.1892E+03   0.07511  -0.18777
     827.00   3.917506     0.1902E+03   0.07751  -0.19377
     829.00   3.918555     0.1872E+03   0.07064  -0.17660
     831.00   3.919601     0.1797E+03   0.05286  -0.13215
     833.00   3.920645     0.1780E+03   0.04857  -0.12143
     835.00   3.921686     0.1772E+03   0.04670  -0.11676
     837.00   3.922725     0.1790E+03   0.05103  -0.12757
     839.00   3.923762     0.1733E+03   0.03690  -0.09225
     841.00   3.924796     0.1793E+03   0.05189  -0.12972
     843.00   3.925828     0.1716E+03   0.03265  -0.08164
     845.00   3.926857     0.1597E+03   0.00157  -0.00393
     847.00   3.927883     0.1594E+03   0.00061  -0.00153
     849.00   3.928908     0.1617E+03   0.00700  -0.01750
     851.00   3.929929     0.1542E+03  -0.01372   0.03429
     853.00   3.930949     0.1601E+03   0.00256  -0.00639
     855.00   3.931966     0.1498E+03  -0.02628   0.06570
     857.00   3.932981     0.1691E+03   0.02643  -0.06608
     859.00   3.933993     0.1682E+03   0.02400  -0.06000
     861.00   3.935003     0.1728E+03   0.03565  -0.08913
     863.00   3.936011     0.1774E+03   0.04728  -0.11820
     865.00   3.937016     0.1782E+03   0.04910  -0.12275
     867.00   3.938019     0.1618E+03   0.00724  -0.01810
     869.00   3.939020     0.1777E+03   0.04801  -0.12003
     871.00   3.940018     0.1857E+03   0.06705  -0.16762
     873.00   3.941014     0.1884E+03   0.07325  -0.18313
     875.00   3.942008     0.1880E+03   0.07234  -0.18085
     877.00   3.943000     0.1907E+03   0.07861  -0.19653
     879.00   3.943989     0.1982E+03   0.09538  -0.23846
     881.00   3.944976     0.1960E+03   0.09045  -0.22612
     883.00   3.945961     0.1986E+03   0.09623  -0.24058
     885.00   3.946943     0.1931E+03   0.08394  -0.20986
     887.00   3.947924     0.1818E+03   0.05771  -0.14426
     889.00   3.948902     0.1814E+03   0.05675  -0.14188
     891.00   3.949878     0.1846E+03   0.06444  -0.16110
     893.00   3.950851     0.1820E+03   0.05841  -0.14603
     895.00   3.951823     0.1839E+03   0.06277  -0.15692
     897.00   3.952792     0.1847E+03   0.06460  -0.16150
     899.00   3.953760     0.1854E+03   0.06629  -0.16572
     901.00   3.954725     0.1825E+03   0.05955  -0.14887
     903.00   3.955688     0.1919E+03   0.08123  -0.20307
     905.00   3.956649     0.2003E+03   0.10000  -0.25000
     907.00   3.957607     0.2039E+03   0.10756  -0.26890
     909.00   3.958564     0.2034E+03   0.10647  -0.26617
     911.00   3.959518     0.2069E+03   0.11389  -0.28473
     913.00   3.960471     0.2105E+03   0.12142  -0.30354
     915.00   3.961421     0.2091E+03   0.11852  -0.29629
     917.00   3.962369     0.2093E+03   0.11907  -0.29768
     919.00   3.963315     0.2119E+03   0.12430  -0.31075
     921.00   3.964260     0.1994E+03   0.09803  -0.24506
     923.00   3.965202     0.1953E+03   0.08899  -0.22248
     925.00   3.966142     0.1916E+03   0.08063  -0.20158
     927.00   3.967080     0.1961E+03   0.09061  -0.22653
     929.00   3.968016     0.1882E+03   0.07281  -0.18202
     931.00   3.968950     0.1892E+03   0.07519  -0.18796
     933.00   3.969882     0.1919E+03   0.08132  -0.20330
     935.00   3.970812     0.1919E+03   0.08135  -0.20338
     937.00   3.971740     0.1866E+03   0.06904  -0.17260
     939.00   3.972666     0.1927E+03   0.08302  -0.20755
     941.00   3.973590     0.1913E+03   0.07996  -0.19991
     943.00   3.974512     0.1957E+03   0.08988  -0.22471
     945.00   3.975432     0.1944E+03   0.08694  -0.21735
     947.00   3.976350     0.2005E+03   0.10043  -0.25107
     949.00   3.977266     0.2021E+03   0.10383  -0.25957
     951.00   3.978180     0.1935E+03   0.08499  -0.21249
     953.00   3.979093     0.1985E+03   0.09602  -0.24004
     955.00   3.980003     0.1972E+03   0.09309  -0.23272
     957.00   3.980912     0.2003E+03   0.09998  -0.24994
     959.00   3.981819     0.2032E+03   0.10617  -0.26544
     961.00   3.982723     0.2013E+03   0.10203  -0.25509
     963.00   3.983626     0.2046E+03   0.10908  -0.27271
     965.00   3.984527     0.2021E+03   0.10370  -0.25925
     967.00   3.985426     0.2029E+03   0.10559  -0.26397
     969.00   3.986324     0.2054E+03   0.11076  -0.27689
     971.00   3.987219     0.2008E+03   0.10094  -0.25234
     973.00   3.988113     0.1980E+03   0.09488  -0.23719
     975.00   3.989005     0.1979E+03   0.09462  -0.23654
     977.00   3.989895     0.1993E+03   0.09766  -0.24415
     979.00   3.990783     0.1976E+03   0.09399  -0.23498
     981.00   3.991669     0.2022E+03   0.10407  -0.26017
     983.00   3.992553     0.2001E+03   0.09939  -0.24848
     985.00   3.993436     0.2015E+03   0.10253  -0.25631
     987.00   3.994317     0.2005E+03   0.10026  -0.25066
     989.00   3.995196     0.2004E+03   0.10016  -0.25039
     991.00   3.996074     0.2005E+03   0.10028  -0.25071
     993.00   3.996949     0.2021E+03   0.10388  -0.25970
     995.00   3.997823     0.2035E+03   0.10674  -0.26686
     997.00   3.998695     0.2038E+03   0.10742  -0.26854
     999.00   3.999566     0.2033E+03   0.10641  -0.26602
    1003.00   4.001301     0.2052E+03   0.11045  -0.27611
    1008.00   4.003461     0.2048E+03   0.10961  -0.27403
    1013.00   4.005610     0.2104E+03   0.12126  -0.30314
    1018.00   4.007748     0.2080E+03   0.11637  -0.29092
    1023.00   4.009875     0.2105E+03   0.12146  -0.30364
    1028.00   4.011993     0.2118E+03   0.12412  -0.31031
    1033.00   4.014100     0.2113E+03   0.12309  -0.30772
    1038.00   4.016197     0.2105E+03   0.12143  -0.30358
    1043.00   4.018284     0.2123E+03   0.12523  -0.31308
    1048.00   4.020361     0.2115E+03   0.12363  -0.30908
    1053.00   4.022429     0.2068E+03   0.11384  -0.28459
    1058.00   4.024486     0.2015E+03   0.10244  -0.25610
    1063.00   4.026533     0.2001E+03   0.09940  -0.24850
    1068.00   4.028571     0.2012E+03   0.10193  -0.25482
    1073.00   4.030600     0.2037E+03   0.10730  -0.26825
    1078.00   4.032619     0.2031E+03   0.10601  -0.26503
    1083.00   4.034628     0.2006E+03   0.10065  -0.25162
    1088.00   4.036629     0.1993E+03   0.09778  -0.24446
    1093.00   4.038620     0.1986E+03   0.09611  -0.24028
    1098.00   4.040603     0.1956E+03   0.08958  -0.22395
    1103.00   4.042576     0.1947E+03   0.08760  -0.21900
    1108.00   4.044539     0.1875E+03   0.07128  -0.17819
    1113.00   4.046495     0.1891E+03   0.07501  -0.18752
    1118.00   4.048442     0.1888E+03   0.07422  -0.18556
    1123.00   4.050380     0.1898E+03   0.07645  -0.19113
    1128.00   4.052309     0.1902E+03   0.07736  -0.19340
    1133.00   4.054230     0.1905E+03   0.07820  -0.19549
    1138.00   4.056142     0.1906E+03   0.07827  -0.19568
    1143.00   4.058046     0.1900E+03   0.07700  -0.19249
    1148.00   4.059942     0.1919E+03   0.08120  -0.20299
    1153.00   4.061830     0.1923E+03   0.08220  -0.20551
    1158.00   4.063708     0.1913E+03   0.07989  -0.19974
    1163.00   4.065579     0.1899E+03   0.07674  -0.19185
    1168.00   4.067443     0.1901E+03   0.07718  -0.19295
    1173.00   4.069298     0.1899E+03   0.07681  -0.19202
    1178.00   4.071145     0.1864E+03   0.06874  -0.17186
    1183.00   4.072985     0.1837E+03   0.06243  -0.15608
    1188.00   4.074817     0.1818E+03   0.05791  -0.14478
    1193.00   4.076640     0.1844E+03   0.06401  -0.16003
    1198.00   4.078457     0.1807E+03   0.05510  -0.13775
    1203.00   4.080266     0.1842E+03   0.06355  -0.15888
    1208.00   4.082067     0.1836E+03   0.06218  -0.15545
    1213.00   4.083861     0.1843E+03   0.06365  -0.15913
    1218.00   4.085648     0.1848E+03   0.06482  -0.16204
    1223.00   4.087426     0.1841E+03   0.06338  -0.15845
    1228.00   4.089198     0.1833E+03   0.06150  -0.15375
    1233.00   4.090963     0.1825E+03   0.05948  -0.14869
    1238.00   4.092721     0.1823E+03   0.05904  -0.14760
    1243.00   4.094471     0.1782E+03   0.04922  -0.12304
    1248.00   4.096214     0.1790E+03   0.05098  -0.12744
    1253.00   4.097951     0.1782E+03   0.04916  -0.12291
    1258.00   4.099681     0.1766E+03   0.04529  -0.11323
    1263.00   4.101403     0.1767E+03   0.04557  -0.11393
    1268.00   4.103119     0.1760E+03   0.04382  -0.10955
    1273.00   4.104828     0.1758E+03   0.04316  -0.10789
    1278.00   4.106531     0.1764E+03   0.04469  -0.11173
    1283.00   4.108227     0.1729E+03   0.03603  -0.09008
    1288.00   4.109916     0.1745E+03   0.04001  -0.10001
    1293.00   4.111598     0.1733E+03   0.03693  -0.09233
    1298.00   4.113275     0.1748E+03   0.04069  -0.10172
    1303.00   4.114944     0.1732E+03   0.03669  -0.09174
    1308.00   4.116608     0.1734E+03   0.03729  -0.09322
    1313.00   4.118265     0.1705E+03   0.02993  -0.07482
    1318.00   4.119915     0.1699E+03   0.02845  -0.07112
    1323.00   4.121560     0.1696E+03   0.02767  -0.06917
    1328.00   4.123198     0.1673E+03   0.02181  -0.05452
    1333.00   4.124830     0.1674E+03   0.02195  -0.05488
    1338.00   4.126456     0.1659E+03   0.01795  -0.04486
    1343.00   4.128076     0.1658E+03   0.01784  -0.04459
    1348.00   4.129690     0.1644E+03   0.01420  -0.03550
    1353.00   4.131298     0.1635E+03   0.01168  -0.02919
    1358.00   4.132900     0.1613E+03   0.00587  -0.01468
    1363.00   4.134496     0.1611E+03   0.00532  -0.01331
    1368.00   4.136086     0.1622E+03   0.00825  -0.02063
    1373.00   4.137671     0.1631E+03   0.01081  -0.02702
    1378.00   4.139249     0.1633E+03   0.01110  -0.02775
    1383.00   4.140822     0.1633E+03   0.01119  -0.02797
    1388.00   4.142389     0.1618E+03   0.00725  -0.01812
    1393.00   4.143951     0.1438E+03  -0.04410   0.11025
    1398.00   4.145507     0.1453E+03  -0.03947   0.09866
    1403.00   4.147058     0.1446E+03  -0.04150   0.10374
    1408.00   4.148602     0.1457E+03  -0.03825   0.09563
    1413.00   4.150142     0.1447E+03  -0.04123   0.10307
    1418.00   4.151676     0.1459E+03  -0.03766   0.09414
    1423.00   4.153205     0.1453E+03  -0.03939   0.09846
    1428.00   4.154728     0.1444E+03  -0.04235   0.10587
    1433.00   4.156246     0.1472E+03  -0.03400   0.08500
    1438.00   4.157759     0.1482E+03  -0.03107   0.07768
    1443.00   4.159266     0.1464E+03  -0.03635   0.09087
    1448.00   4.160769     0.1488E+03  -0.02922   0.07305
    1453.00   4.162266     0.1482E+03  -0.03082   0.07705
    1457.00   4.163460     0.1492E+03  -0.02811   0.07029
    1462.00   4.164948     0.1402E+03  -0.05506   0.13764
    1468.00   4.166726     0.1416E+03  -0.05065   0.12662
    1473.00   4.168202     0.1414E+03  -0.05132   0.12831
    1478.00   4.169674     0.1430E+03  -0.04639   0.11598
    1483.00   4.171141     0.1443E+03  -0.04257   0.10643
    1488.00   4.172603     0.1441E+03  -0.04305   0.10763
    1493.00   4.174060     0.1476E+03  -0.03258   0.08145
    1498.00   4.175512     0.1475E+03  -0.03286   0.08216
    1503.00   4.176959     0.1467E+03  -0.03544   0.08861
    1508.00   4.178401     0.1478E+03  -0.03212   0.08030
    1513.00   4.179839     0.1503E+03  -0.02476   0.06191
    1518.00   4.181272     0.1514E+03  -0.02168   0.05421
    1523.00   4.182700     0.1518E+03  -0.02058   0.05146
    1528.00   4.184123     0.1531E+03  -0.01686   0.04216
    1533.00   4.185542     0.1531E+03  -0.01677   0.04192
    1538.00   4.186956     0.1486E+03  -0.02982   0.07454
    1543.00   4.188366     0.1508E+03  -0.02340   0.05850
    1548.00   4.189771     0.1516E+03  -0.02096   0.05241
    1553.00   4.191172     0.1514E+03  -0.02162   0.05406
    1558.00   4.192567     0.1438E+03  -0.04393   0.10983
    1563.00   4.193959     0.1457E+03  -0.03835   0.09587
    1568.00   4.195346     0.1471E+03  -0.03404   0.08510
    1573.00   4.196729     0.1512E+03  -0.02229   0.05573
    1578.00   4.198107     0.1322E+03  -0.08056   0.20140
    1583.00   4.199481     0.1387E+03  -0.05957   0.14893
    1588.00   4.200850     0.1418E+03  -0.05018   0.12546
    1593.00   4.202216     0.1468E+03  -0.03518   0.08795
    1598.00   4.203577     0.1505E+03  -0.02432   0.06080
    1605.00   4.205475     0.1395E+03  -0.05726   0.14315
    1615.00   4.208173     0.1466E+03  -0.03572   0.08930
    1625.00   4.210854     0.1378E+03  -0.06263   0.15657
    1635.00   4.213518     0.1463E+03  -0.03650   0.09126
    1645.00   4.216166     0.1381E+03  -0.06151   0.15379
    1655.00   4.218798     0.1436E+03  -0.04458   0.11144
    1665.00   4.221415     0.1376E+03  -0.06321   0.15801
    1675.00   4.224015     0.1419E+03  -0.04991   0.12479
    1685.00   4.226600     0.1436E+03  -0.04457   0.11144
    1695.00   4.229170     0.1396E+03  -0.05681   0.14203
    1705.00   4.231725     0.1391E+03  -0.05856   0.14639
    1715.00   4.234264     0.1358E+03  -0.06885   0.17213
    1725.00   4.236789     0.1341E+03  -0.07422   0.18555
    1735.00   4.239300     0.1296E+03  -0.08911   0.22276
    1745.00   4.241796     0.1284E+03  -0.09337   0.23342
    1755.00   4.244277     0.1269E+03  -0.09837   0.24594
    1765.00   4.246745     0.1234E+03  -0.11047   0.27618
    1775.00   4.249198     0.1202E+03  -0.12178   0.30446
    1785.00   4.251638     0.1183E+03  -0.12867   0.32167
    1795.00   4.254065     0.1151E+03  -0.14077   0.35193
    1805.00   4.256477     0.1122E+03  -0.15170   0.37925
    1815.00   4.258877     0.1104E+03  -0.15869   0.39674
    1825.00   4.261263     0.1087E+03  -0.16564   0.41411
    1835.00   4.263636     0.1069E+03  -0.17264   0.43160
    1845.00   4.265996     0.1048E+03  -0.18127   0.45317
    1855.00   4.268344     0.1034E+03  -0.18713   0.46784
    1865.00   4.270679     0.1007E+03  -0.19868   0.49670
    1875.00   4.273001     0.9886E+02  -0.20677   0.51693
    1885.00   4.275311     0.9778E+02  -0.21154   0.52886
    1895.00   4.277609     0.9491E+02  -0.22445   0.56112
    1905.00   4.279895     0.9498E+02  -0.22413   0.56033
    1915.00   4.282169     0.9316E+02  -0.23255   0.58138
    1925.00   4.284431     0.9182E+02  -0.23886   0.59715
    1935.00   4.286681     0.8957E+02  -0.24962   0.62404
    1945.00   4.288919     0.8760E+02  -0.25926   0.64815
    1955.00   4.291147     0.8652E+02  -0.26464   0.66160
    1965.00   4.293363     0.8460E+02  -0.27442   0.68605
    1975.00   4.295567     0.8219E+02  -0.28695   0.71737
    1985.00   4.297760     0.8099E+02  -0.29334   0.73336
    1995.00   4.299943     0.8000E+02  -0.29871   0.74678
    2005.00   4.302114     0.7934E+02  -0.30227   0.75568
    2015.00   4.304275     0.7824E+02  -0.30837   0.77093
    2025.00   4.306425     0.7659E+02  -0.31760   0.79400
    2035.00   4.308564     0.7577E+02  -0.32230   0.80575
    2045.00   4.310693     0.7543E+02  -0.32424   0.81060
    2055.00   4.312812     0.7437E+02  -0.33039   0.82597
    2065.00   4.314920     0.7339E+02  -0.33615   0.84038
    2075.00   4.317018     0.7272E+02  -0.34012   0.85031
    2085.00   4.319106     0.7185E+02  -0.34538   0.86344
    2095.00   4.321184     0.7083E+02  -0.35156   0.87891
    2105.00   4.323252     0.7045E+02  -0.35390   0.88475
    2115.00   4.325311     0.6942E+02  -0.36027   0.90068
    2125.00   4.327359     0.6853E+02  -0.36588   0.91469
    2135.00   4.329398     0.6797E+02  -0.36943   0.92358
    2145.00   4.331428     0.6709E+02  -0.37513   0.93782
    2155.00   4.333447     0.6616E+02  -0.38116   0.95290
    2165.00   4.335458     0.6513E+02  -0.38799   0.96996
    2175.00   4.337460     0.6420E+02  -0.39425   0.98562
    2185.00   4.339452     0.6347E+02  -0.39924   0.99811
    2195.00   4.341434     0.6270E+02  -0.40451   1.01129
    2205.00   4.343409     0.6137E+02  -0.41379   1.03447
    2215.00   4.345374     0.6104E+02  -0.41615   1.04038
    2225.00   4.347330     0.5976E+02  -0.42535   1.06337
    2235.00   4.349277     0.5899E+02  -0.43103   1.07758
    2245.00   4.351216     0.5815E+02  -0.43723   1.09308
    2255.00   4.353147     0.5744E+02  -0.44259   1.10647
    2265.00   4.355068     0.5631E+02  -0.45119   1.12796
    2275.00   4.356981     0.5586E+02  -0.45465   1.13662
    2285.00   4.358886     0.5478E+02  -0.46318   1.15795
    2295.00   4.360783     0.4279E+02  -0.57039   1.42599
    2305.00   4.362671     0.4822E+02  -0.51857   1.29642
    2315.00   4.364551     0.4815E+02  -0.51915   1.29789
    2325.00   4.366423     0.3978E+02  -0.60206   1.50515
    2335.00   4.368287     0.4410E+02  -0.55735   1.39336
    2345.00   4.370143     0.3954E+02  -0.60469   1.51172
    2355.00   4.371991     0.3685E+02  -0.63539   1.58848
    2365.00   4.373831     0.4037E+02  -0.59568   1.48920
    2375.00   4.375664     0.3705E+02  -0.63298   1.58244
    2385.00   4.377488     0.3458E+02  -0.66290   1.65726
    2395.00   4.379306     0.3725E+02  -0.63071   1.57676
    2405.00   4.381115     0.3518E+02  -0.65545   1.63863
    2415.00   4.382917     0.3227E+02  -0.69297   1.73242
    2425.00   4.384712     0.3442E+02  -0.66495   1.66237
    2435.00   4.386499     0.3219E+02  -0.69412   1.73530
    2445.00   4.388279     0.3249E+02  -0.69009   1.72523
    2455.00   4.390052     0.3093E+02  -0.71138   1.77844
    2465.00   4.391817     0.3048E+02  -0.71781   1.79452
    2475.00   4.393575     0.2948E+02  -0.73231   1.83078
    2485.00   4.395327     0.2483E+02  -0.80680   2.01701
    2495.00   4.397071     0.2308E+02  -0.83847   2.09619
    2505.00   4.398808     0.2348E+02  -0.83103   2.07757
    2515.00   4.400538     0.2244E+02  -0.85071   2.12678
    2525.00   4.402262     0.2304E+02  -0.83936   2.09840
    2535.00   4.403978     0.2311E+02  -0.83792   2.09479
    2545.00   4.405688     0.2294E+02  -0.84115   2.10288
    2555.00   4.407391     0.2304E+02  -0.83937   2.09842
    2565.00   4.409087     0.2339E+02  -0.83279   2.08197
    2575.00   4.410777     0.2375E+02  -0.82608   2.06519
    2585.00   4.412460     0.2338E+02  -0.83296   2.08240
    2595.00   4.414137     0.2348E+02  -0.83101   2.07753
    2605.00   4.415808     0.2353E+02  -0.83006   2.07516
    2615.00   4.417472     0.2320E+02  -0.83627   2.09068
    2625.00   4.419129     0.2290E+02  -0.84194   2.10485
    2635.00   4.420781     0.2290E+02  -0.84193   2.10482
    2645.00   4.422426     0.2271E+02  -0.84560   2.11400
    2655.00   4.424065     0.2247E+02  -0.85026   2.12566
    2665.00   4.425697     0.2215E+02  -0.85648   2.14121
    2675.00   4.427324     0.2236E+02  -0.85234   2.13086
    2685.00   4.428945     0.2213E+02  -0.85679   2.14198
    2695.00   4.430559     0.2174E+02  -0.86448   2.16121
    2705.00   4.432167     0.2174E+02  -0.86447   2.16116
    2715.00   4.433770     0.2156E+02  -0.86810   2.17024
    2725.00   4.435367     0.2144E+02  -0.87048   2.17620
    2735.00   4.436957     0.2110E+02  -0.87745   2.19362
    2745.00   4.438542     0.2107E+02  -0.87816   2.19539
    2755.00   4.440122     0.2096E+02  -0.88048   2.20121
    2765.00   4.441695     0.2070E+02  -0.88577   2.21442
    2775.00   4.443263     0.2043E+02  -0.89159   2.22897
    2785.00   4.444825     0.2036E+02  -0.89292   2.23229
    2795.00   4.446382     0.2028E+02  -0.89472   2.23681
    2805.00   4.447933     0.2008E+02  -0.89909   2.24771
    2815.00   4.449478     0.1982E+02  -0.90464   2.26160
    2825.00   4.451018     0.1969E+02  -0.90756   2.26889
    2835.00   4.452553     0.1958E+02  -0.90987   2.27469
    2845.00   4.454082     0.1936E+02  -0.91485   2.28714
    2855.00   4.455606     0.1918E+02  -0.91900   2.29750
    2865.00   4.457125     0.1901E+02  -0.92269   2.30672
    2875.00   4.458638     0.1885E+02  -0.92636   2.31590
    2885.00   4.460146     0.1868E+02  -0.93042   2.32605
    2895.00   4.461648     0.1851E+02  -0.93432   2.33580
    2905.00   4.463146     0.1833E+02  -0.93864   2.34660
    2915.00   4.464639     0.1818E+02  -0.94219   2.35548
    2925.00   4.466126     0.1790E+02  -0.94888   2.37221
    2935.00   4.467608     0.1784E+02  -0.95038   2.37595
    2945.00   4.469085     0.1764E+02  -0.95517   2.38793
    2955.00   4.470557     0.1748E+02  -0.95913   2.39782
    2965.00   4.472025     0.1736E+02  -0.96228   2.40569
    2975.00   4.473487     0.1720E+02  -0.96629   2.41571
    2985.00   4.474944     0.1700E+02  -0.97125   2.42813
    2995.00   4.476397     0.1683E+02  -0.97569   2.43922
    3005.00   4.477844     0.1671E+02  -0.97889   2.44721
    3015.00   4.479287     0.1665E+02  -0.98044   2.45110
    3025.00   4.480725     0.1652E+02  -0.98380   2.45949
    3035.00   4.482159     0.1641E+02  -0.98677   2.46693
    3045.00   4.483587     0.1636E+02  -0.98808   2.47020
    3055.00   4.485011     0.1625E+02  -0.99103   2.47756
    3065.00   4.486430     0.1615E+02  -0.99364   2.48409
    3075.00   4.487845     0.1609E+02  -0.99528   2.48820
    3085.00   4.489255     0.1596E+02  -0.99872   2.49680
    3095.00   4.490661     0.1591E+02  -1.00005   2.50012
    3105.00   4.492062     0.1586E+02  -1.00159   2.50397
    3115.00   4.493458     0.1569E+02  -1.00626   2.51565
    3125.00   4.494850     0.1564E+02  -1.00749   2.51873
    3135.00   4.496238     0.1555E+02  -1.01013   2.52532
    3145.00   4.497621     0.1544E+02  -1.01306   2.53265
    3155.00   4.499000     0.1533E+02  -1.01635   2.54088
    3165.00   4.500374     0.1520E+02  -1.01986   2.54965
    3175.00   4.501744     0.1514E+02  -1.02165   2.55413
    3185.00   4.503109     0.1505E+02  -1.02415   2.56038
    3195.00   4.504471     0.1499E+02  -1.02609   2.56523
    3210.00   4.506505     0.1484E+02  -1.03047   2.57617
    3230.00   4.509202     0.1463E+02  -1.03651   2.59128
    3250.00   4.511883     0.1445E+02  -1.04200   2.60501
    3270.00   4.514548     0.1423E+02  -1.04853   2.62133
    3290.00   4.517196     0.1399E+02  -1.05581   2.63953
    3310.00   4.519828     0.1381E+02  -1.06158   2.65394
    3330.00   4.522444     0.1358E+02  -1.06880   2.67200
    3350.00   4.525045     0.1339E+02  -1.07513   2.68783
    3370.00   4.527630     0.1316E+02  -1.08265   2.70662
    3390.00   4.530200     0.1292E+02  -1.09068   2.72670
    3410.00   4.532754     0.1267E+02  -1.09887   2.74718
    3430.00   4.535294     0.1247E+02  -1.10579   2.76449
    3450.00   4.537819     0.1225E+02  -1.11366   2.78415
    3470.00   4.540329     0.1202E+02  -1.12194   2.80486
    3490.00   4.542826     0.1180E+02  -1.12971   2.82428
    3510.00   4.545307     0.1160E+02  -1.13749   2.84372
    3530.00   4.547775     0.1137E+02  -1.14617   2.86543
    3550.00   4.550228     0.1117E+02  -1.15382   2.88455
    3570.00   4.552669     0.1096E+02  -1.16215   2.90539
    3590.00   4.555095     0.1075E+02  -1.17017   2.92543
    3610.00   4.557508     0.1057E+02  -1.17777   2.94443
    3630.00   4.559907     0.1037E+02  -1.18614   2.96535
    3650.00   4.562293     0.1016E+02  -1.19500   2.98751
    3670.00   4.564666     0.9965E+01  -1.20330   3.00825
    3690.00   4.567026     0.9754E+01  -1.21258   3.03145
    3710.00   4.569374     0.9562E+01  -1.22123   3.05308
    3730.00   4.571709     0.9409E+01  -1.22824   3.07060
    3750.00   4.574031     0.9202E+01  -1.23789   3.09472
    3770.00   4.576342     0.9062E+01  -1.24457   3.11142
    3790.00   4.578639     0.8883E+01  -1.25322   3.13305
    3810.00   4.580925     0.8724E+01  -1.26108   3.15269
    3830.00   4.583199     0.8573E+01  -1.26866   3.17164
    3850.00   4.585461     0.8415E+01  -1.27670   3.19175
    3870.00   4.587711     0.8237E+01  -1.28603   3.21507
    3890.00   4.589950     0.8090E+01  -1.29381   3.23453
    3910.00   4.592176     0.7946E+01  -1.30161   3.25403
    3930.00   4.594393     0.7798E+01  -1.30981   3.27452
    3950.00   4.596597     0.7630E+01  -1.31926   3.29816
    3970.00   4.598790     0.7495E+01  -1.32703   3.31757
    3990.00   4.600973     0.7331E+01  -1.33663   3.34159
    4010.00   4.603145     0.7213E+01  -1.34368   3.35919
    4030.00   4.605305     0.7091E+01  -1.35107   3.37768
    4050.00   4.607455     0.6950E+01  -1.35979   3.39948
    4070.00   4.609594     0.6827E+01  -1.36755   3.41888
    4090.00   4.611723     0.6703E+01  -1.37553   3.43882
    4110.00   4.613842     0.6590E+01  -1.38286   3.45716
    4130.00   4.615950     0.6484E+01  -1.38992   3.47481
    4150.00   4.618048     0.6369E+01  -1.39769   3.49422
    4170.00   4.620136     0.6263E+01  -1.40500   3.51251
    4190.00   4.622214     0.6152E+01  -1.41273   3.53182
    4210.00   4.624282     0.6043E+01  -1.42055   3.55137
    4230.00   4.626340     0.5963E+01  -1.42635   3.56586
    4250.00   4.628389     0.5853E+01  -1.43437   3.58592
    4270.00   4.630428     0.5765E+01  -1.44096   3.60241
    4290.00   4.632457     0.5544E+01  -1.45799   3.64497
    4310.00   4.634478     0.5307E+01  -1.47689   3.69224
    4330.00   4.636488     0.5273E+01  -1.47976   3.69939
    4350.00   4.638489     0.5089E+01  -1.49510   3.73776
    4370.00   4.640481     0.4968E+01  -1.50563   3.76408
    4390.00   4.642465     0.4872E+01  -1.51410   3.78525
    4410.00   4.644439     0.4724E+01  -1.52749   3.81873
    4430.00   4.646404     0.4651E+01  -1.53424   3.83560
    4450.00   4.648360     0.4572E+01  -1.54170   3.85424
    4470.00   4.650308     0.4447E+01  -1.55370   3.88424
    4490.00   4.652246     0.4416E+01  -1.55672   3.89181
    4510.00   4.654177     0.4322E+01  -1.56612   3.91531
    4530.00   4.656098     0.4230E+01  -1.57545   3.93862
    4550.00   4.658011     0.4192E+01  -1.57937   3.94843
    4570.00   4.659916     0.4136E+01  -1.58518   3.96296
    4590.00   4.661813     0.4033E+01  -1.59612   3.99031
    4610.00   4.663701     0.4014E+01  -1.59825   3.99562
    4630.00   4.665581     0.3942E+01  -1.60608   4.01521
    4650.00   4.667453     0.3896E+01  -1.61119   4.02798
    4670.00   4.669317     0.3860E+01  -1.61519   4.03796
    4690.00   4.671173     0.3792E+01  -1.62295   4.05737
    4710.00   4.673021     0.3731E+01  -1.62991   4.07478
    4730.00   4.674861     0.3714E+01  -1.63191   4.07976
    4750.00   4.676694     0.3642E+01  -1.64050   4.10124
    4770.00   4.678518     0.3593E+01  -1.64635   4.11588
    4790.00   4.680336     0.3554E+01  -1.65102   4.12756
    4810.00   4.682145     0.3480E+01  -1.66024   4.15059
    4830.00   4.683947     0.3468E+01  -1.66170   4.15425
    4850.00   4.685741     0.3410E+01  -1.66903   4.17257
    4870.00   4.687529     0.3351E+01  -1.67657   4.19142
    4890.00   4.689309     0.3305E+01  -1.68263   4.20656
    4910.00   4.691082     0.3263E+01  -1.68811   4.22027
    4930.00   4.692847     0.3215E+01  -1.69463   4.23657
    4950.00   4.694605     0.3164E+01  -1.70156   4.25390
    4970.00   4.696356     0.3135E+01  -1.70558   4.26395
    4990.00   4.698101     0.3091E+01  -1.71167   4.27916
    5010.00   4.699838     0.3050E+01  -1.71745   4.29363
    5030.00   4.701568     0.3009E+01  -1.72332   4.30829
    5050.00   4.703291     0.2955E+01  -1.73118   4.32795
    5070.00   4.705008     0.2926E+01  -1.73545   4.33863
    5090.00   4.706717     0.2887E+01  -1.74130   4.35326
    5110.00   4.708421     0.2842E+01  -1.74821   4.37054
    5130.00   4.710117     0.2816E+01  -1.75211   4.38027
    5150.00   4.711807     0.2770E+01  -1.75924   4.39810
    5170.00   4.713490     0.2749E+01  -1.76261   4.40652
    5190.00   4.715167     0.2705E+01  -1.76967   4.42419
    5210.00   4.716838     0.2674E+01  -1.77465   4.43663
    5230.00   4.718502     0.2631E+01  -1.78164   4.45411
    5250.00   4.720160     0.2605E+01  -1.78589   4.46473
    5270.00   4.721810     0.2585E+01  -1.78935   4.47337
    5290.00   4.723455     0.2536E+01  -1.79765   4.49412
    5310.00   4.725095     0.2503E+01  -1.80332   4.50831
    5330.00   4.726727     0.2478E+01  -1.80771   4.51928
    5350.00   4.728354     0.2447E+01  -1.81309   4.53274
    5370.00   4.729974     0.2419E+01  -1.81817   4.54542
    5390.00   4.731589     0.2390E+01  -1.82332   4.55830
    5410.00   4.733197     0.2361E+01  -1.82859   4.57149
    5430.00   4.734800     0.2323E+01  -1.83571   4.58926
    5450.00   4.736397     0.2306E+01  -1.83897   4.59743
    5470.00   4.737988     0.2271E+01  -1.84563   4.61407
    5490.00   4.739573     0.2246E+01  -1.85038   4.62595
    5510.00   4.741152     0.2217E+01  -1.85607   4.64018
    5530.00   4.742725     0.2209E+01  -1.85751   4.64378
    5550.00   4.744293     0.2162E+01  -1.86689   4.66721
    5570.00   4.745855     0.2149E+01  -1.86948   4.67370
    5590.00   4.747412     0.2117E+01  -1.87608   4.69019
    5610.00   4.748963     0.2098E+01  -1.88004   4.70011
    5630.00   4.750508     0.2064E+01  -1.88706   4.71766
    5650.00   4.752048     0.2048E+01  -1.89043   4.72607
    5670.00   4.753583     0.2024E+01  -1.89565   4.73911
    5690.00   4.755112     0.1992E+01  -1.90253   4.75633
    5710.00   4.756636     0.1978E+01  -1.90554   4.76384
    5730.00   4.758155     0.1953E+01  -1.91098   4.77745
    5750.00   4.759668     0.1930E+01  -1.91616   4.79039
    5770.00   4.761176     0.1906E+01  -1.92173   4.80433
    5790.00   4.762679     0.1889E+01  -1.92559   4.81397
    5810.00   4.764176     0.1862E+01  -1.93183   4.82956
    5830.00   4.765669     0.1841E+01  -1.93663   4.84157
    5850.00   4.767156     0.1820E+01  -1.94159   4.85398
    5870.00   4.768638     0.1795E+01  -1.94781   4.86951
    5890.00   4.770115     0.1775E+01  -1.95257   4.88142
    5910.00   4.771587     0.1756E+01  -1.95731   4.89327
    5930.00   4.773055     0.1737E+01  -1.96210   4.90524
    5950.00   4.774517     0.1713E+01  -1.96790   4.91974
    5970.00   4.775974     0.1697E+01  -1.97205   4.93014
    5990.00   4.777427     0.1677E+01  -1.97713   4.94282
    6010.00   4.778874     0.1658E+01  -1.98221   4.95553
    6030.00   4.780317     0.1638E+01  -1.98734   4.96835
    6050.00   4.781755     0.1617E+01  -1.99316   4.98290
    6070.00   4.783189     0.1599E+01  -1.99806   4.99514
    6090.00   4.784617     0.1580E+01  -2.00318   5.00794
    6110.00   4.786041     0.1560E+01  -2.00854   5.02136
    6130.00   4.787460     0.1545E+01  -2.01295   5.03238
    6150.00   4.788875     0.1528E+01  -2.01770   5.04425
    6170.00   4.790285     0.1512E+01  -2.02226   5.05565
    6190.00   4.791691     0.1494E+01  -2.02740   5.06849
    6210.00   4.793092     0.1478E+01  -2.03204   5.08010
    6230.00   4.794488     0.1459E+01  -2.03759   5.09399
    6250.00   4.795880     0.1441E+01  -2.04307   5.10768
    6270.00   4.797267     0.1425E+01  -2.04804   5.12009
    6290.00   4.798651     0.1410E+01  -2.05263   5.13158
    6310.00   4.800029     0.1393E+01  -2.05782   5.14455
    6330.00   4.801404     0.1380E+01  -2.06189   5.15472
    6350.00   4.802773     0.1363E+01  -2.06725   5.16813
    6370.00   4.804139     0.1350E+01  -2.07144   5.17860
    6390.00   4.805501     0.1333E+01  -2.07709   5.19273
    6420.00   4.807535     0.1311E+01  -2.08411   5.21027
    6460.00   4.810232     0.1281E+01  -2.09411   5.23527
    6500.00   4.812913     0.1253E+01  -2.10374   5.25936
    6540.00   4.815578     0.1226E+01  -2.11340   5.28349
    6580.00   4.818226     0.1200E+01  -2.12276   5.30690
    6620.00   4.820858     0.1173E+01  -2.13252   5.33131
    6660.00   4.823474     0.1148E+01  -2.14197   5.35492
    6700.00   4.826075     0.1123E+01  -2.15140   5.37851
    6740.00   4.828660     0.1098E+01  -2.16106   5.40266
    6780.00   4.831230     0.1075E+01  -2.17042   5.42604
    6820.00   4.833784     0.1052E+01  -2.17988   5.44969
    6860.00   4.836324     0.1030E+01  -2.18901   5.47254
    6900.00   4.838849     0.1008E+01  -2.19840   5.49601
    6940.00   4.841359     0.9866E+00  -2.20762   5.51906
    6980.00   4.843855     0.9660E+00  -2.21679   5.54197
    7020.00   4.846337     0.9455E+00  -2.22612   5.56530
    7060.00   4.848804     0.9262E+00  -2.23509   5.58773
    7100.00   4.851258     0.9069E+00  -2.24421   5.61052
    7140.00   4.853698     0.8884E+00  -2.25318   5.63296
    7180.00   4.856124     0.8700E+00  -2.26224   5.65561
    7220.00   4.858537     0.8524E+00  -2.27115   5.67788
    7260.00   4.860937     0.8349E+00  -2.28013   5.70031
    7300.00   4.863323     0.8181E+00  -2.28895   5.72238
    7340.00   4.865696     0.8015E+00  -2.29789   5.74473
    7380.00   4.868056     0.7856E+00  -2.30660   5.76649
    7420.00   4.870404     0.7693E+00  -2.31567   5.78918
    7460.00   4.872739     0.7541E+00  -2.32436   5.81091
    7500.00   4.875061     0.7393E+00  -2.33294   5.83235
    7540.00   4.877371     0.7246E+00  -2.34167   5.85418
    7580.00   4.879669     0.7109E+00  -2.34996   5.87491
    7620.00   4.881955     0.6971E+00  -2.35851   5.89627
    7660.00   4.884229     0.6835E+00  -2.36702   5.91755
    7700.00   4.886491     0.6702E+00  -2.37556   5.93890
    7740.00   4.888741     0.6574E+00  -2.38393   5.95981
    7780.00   4.890980     0.6449E+00  -2.39229   5.98073
    7820.00   4.893207     0.6326E+00  -2.40066   6.00165
    7860.00   4.895422     0.6206E+00  -2.40896   6.02241
    7900.00   4.897627     0.6089E+00  -2.41725   6.04312
    7940.00   4.899820     0.5974E+00  -2.42548   6.06370
    7980.00   4.902003     0.5863E+00  -2.43365   6.08411
    8020.00   4.904174     0.5752E+00  -2.44199   6.10498
    8060.00   4.906335     0.5645E+00  -2.45008   6.12521
    8100.00   4.908485     0.5543E+00  -2.45807   6.14517
    8140.00   4.910625     0.5440E+00  -2.46618   6.16546
    8180.00   4.912753     0.5342E+00  -2.47409   6.18523
    8220.00   4.914872     0.5245E+00  -2.48205   6.20513
    8260.00   4.916980     0.5149E+00  -2.49003   6.22506
    8300.00   4.919078     0.5057E+00  -2.49792   6.24480
    8340.00   4.921166     0.4964E+00  -2.50591   6.26478
    8380.00   4.923244     0.4875E+00  -2.51376   6.28441
    8420.00   4.925312     0.4790E+00  -2.52143   6.30359
    8460.00   4.927370     0.4705E+00  -2.52925   6.32312
    8500.00   4.929419     0.4622E+00  -2.53696   6.34241
    8540.00   4.931458     0.4541E+00  -2.54463   6.36157
    8580.00   4.933487     0.4462E+00  -2.55225   6.38064
    8620.00   4.935507     0.4384E+00  -2.55988   6.39969
    8660.00   4.937518     0.4309E+00  -2.56743   6.41859
    8700.00   4.939519     0.4234E+00  -2.57502   6.43754
    8740.00   4.941511     0.4161E+00  -2.58253   6.45633
    8780.00   4.943495     0.4090E+00  -2.59005   6.47513
    8820.00   4.945469     0.4020E+00  -2.59759   6.49397
    8860.00   4.947433     0.3952E+00  -2.60500   6.51250
    8900.00   4.949390     0.3885E+00  -2.61244   6.53110
    8940.00   4.951338     0.3820E+00  -2.61973   6.54932
    8980.00   4.953277     0.3754E+00  -2.62724   6.56809
    9020.00   4.955207     0.3693E+00  -2.63438   6.58594
    9060.00   4.957129     0.3632E+00  -2.64161   6.60404
    9100.00   4.959042     0.3570E+00  -2.64912   6.62280
    9140.00   4.960946     0.3512E+00  -2.65617   6.64044
    9180.00   4.962843     0.3455E+00  -2.66337   6.65842
    9220.00   4.964731     0.3399E+00  -2.67041   6.67602
    9260.00   4.966611     0.3344E+00  -2.67756   6.69389
    9300.00   4.968483     0.3290E+00  -2.68464   6.71159
    9340.00   4.970347     0.3236E+00  -2.69174   6.72934
    9380.00   4.972203     0.3184E+00  -2.69875   6.74689
    9420.00   4.974051     0.3133E+00  -2.70577   6.76441
    9460.00   4.975891     0.3083E+00  -2.71280   6.78199
    9500.00   4.977724     0.3034E+00  -2.71974   6.79935
    9540.00   4.979548     0.2986E+00  -2.72666   6.81666
    9580.00   4.981365     0.2939E+00  -2.73354   6.83385
    9620.00   4.983175     0.2893E+00  -2.74044   6.85111
    9660.00   4.984977     0.2848E+00  -2.74727   6.86818
    9700.00   4.986772     0.2803E+00  -2.75408   6.88520
    9740.00   4.988559     0.2758E+00  -2.76111   6.90278
    9780.00   4.990339     0.2717E+00  -2.76772   6.91930
    9820.00   4.992111     0.2675E+00  -2.77440   6.93601
    9860.00   4.993877     0.2634E+00  -2.78112   6.95280
    9900.00   4.995635     0.2594E+00  -2.78779   6.96948
    9940.00   4.997386     0.2554E+00  -2.79450   6.98624
    9980.00   4.999130     0.2516E+00  -2.80112   7.00280
   10020.00   5.000868     0.2478E+00  -2.80773   7.01933
   20000.00   5.301030     0.1714E-01  -3.96778   9.91946
   40000.00   5.602060     0.1119E-02  -5.15295  12.88238
   60000.00   5.778151     0.2239E-03  -5.85177  14.62943
   80000.00   5.903090     0.7122E-04  -6.34916  15.87291
  100000.00   6.000000     0.2925E-04  -6.73564  16.83909
  120000.00   6.079181     0.1413E-04  -7.05175  17.62937
  140000.00   6.146128     0.7630E-05  -7.31923  18.29808
  160000.00   6.204120     0.4474E-05  -7.55106  18.87764
