age =   12.0    [Fe/H] =    0.25

wavele(nm) log wave(A)   Hlam       log(Hlam/Hlam(V))  Hlam(mag(V)) 
      90.50   2.956649     0.5860E-14 -16.32353  40.80882
      91.50   2.961421     0.1397E-12 -14.94637  37.36592
      92.50   2.966142     0.1521E-11 -13.90929  34.77323
      93.50   2.970812     0.2161E-11 -13.75677  34.39193
      94.50   2.975432     0.3288E-11 -13.57454  33.93636
      95.50   2.980003     0.5019E-11 -13.39086  33.47716
      96.50   2.984527     0.7786E-11 -13.20015  33.00037
      97.50   2.989005     0.1074E-10 -13.06037  32.65092
      98.50   2.993436     0.1547E-10 -12.90184  32.25460
      99.50   2.997823     0.2159E-10 -12.75717  31.89291
     100.50   3.002166     0.3283E-10 -12.57522  31.43804
     101.50   3.006466     0.4632E-10 -12.42568  31.06419
     102.50   3.010724     0.5581E-10 -12.34475  30.86187
     103.50   3.014940     0.9187E-10 -12.12827  30.32067
     104.50   3.019116     0.1300E-09 -11.97754  29.94386
     105.50   3.023252     0.1668E-09 -11.86917  29.67291
     106.50   3.027350     0.2346E-09 -11.72120  29.30300
     107.50   3.031409     0.3218E-09 -11.58379  28.95949
     108.50   3.035430     0.4378E-09 -11.45018  28.62545
     109.50   3.039414     0.5511E-09 -11.35023  28.37559
     110.50   3.043362     0.9179E-09 -11.12863  27.82158
     111.50   3.047275     0.1295E-08 -10.97931  27.44827
     112.50   3.051152     0.1816E-08 -10.83235  27.08086
     113.50   3.054996     0.2617E-08 -10.67362  26.68405
     114.50   3.058805     0.3507E-08 -10.54647  26.36617
     115.50   3.062582     0.4397E-08 -10.44825  26.12063
     116.50   3.066326     0.5907E-08 -10.32008  25.80019
     117.50   3.070038     0.7747E-08 -10.20234  25.50585
     118.50   3.073718     0.9347E-08 -10.12079  25.30197
     119.50   3.077368     0.1025E-07 -10.08066  25.20166
     120.50   3.080987     0.1249E-07  -9.99492  24.98730
     121.50   3.084576     0.7367E-08 -10.22418  25.56045
     122.50   3.088136     0.1867E-07  -9.82028  24.55069
     123.50   3.091667     0.2779E-07  -9.64762  24.11906
     124.50   3.095169     0.3497E-07  -9.54774  23.86935
     125.50   3.098644     0.4207E-07  -9.46749  23.66874
     126.50   3.102091     0.4954E-07  -9.39648  23.49120
     127.50   3.105510     0.6044E-07  -9.31014  23.27535
     128.50   3.108903     0.6891E-07  -9.25315  23.13288
     129.50   3.112270     0.8440E-07  -9.16512  22.91281
     130.50   3.115611     0.9602E-07  -9.10909  22.77271
     131.50   3.118926     0.1200E-06  -9.01241  22.53102
     132.50   3.122216     0.1321E-06  -8.97038  22.42595
     133.50   3.125481     0.1528E-06  -8.90745  22.26863
     134.50   3.128722     0.1861E-06  -8.82165  22.05413
     135.50   3.131939     0.2265E-06  -8.73639  21.84096
     136.50   3.135133     0.2547E-06  -8.68549  21.71372
     137.50   3.138303     0.2907E-06  -8.62795  21.56987
     138.50   3.141450     0.3327E-06  -8.56937  21.42343
     139.50   3.144574     0.3877E-06  -8.50299  21.25749
     140.50   3.147676     0.4788E-06  -8.41129  21.02823
     141.50   3.150756     0.5634E-06  -8.34060  20.85150
     142.50   3.153815     0.6677E-06  -8.26685  20.66712
     143.50   3.156852     0.8073E-06  -8.18440  20.46099
     144.20   3.158965     0.9932E-06  -8.09443  20.23606
     144.70   3.160469     0.9654E-06  -8.10672  20.26679
     145.50   3.162863     0.1130E-05  -8.03829  20.09573
     146.50   3.165838     0.1428E-05  -7.93681  19.84202
     147.50   3.168792     0.1662E-05  -7.87084  19.67710
     148.50   3.171726     0.1861E-05  -7.82161  19.55402
     149.50   3.174641     0.2363E-05  -7.71807  19.29518
     150.50   3.177536     0.2880E-05  -7.63213  19.08032
     151.20   3.179552     0.2534E-05  -7.68769  19.21922
     151.70   3.180986     0.3048E-05  -7.60747  19.01869
     152.50   3.183270     0.6525E-05  -7.27688  18.19219
     153.50   3.186108     0.1083E-04  -7.05680  17.64201
     154.50   3.188928     0.9207E-05  -7.12731  17.81827
     155.50   3.191730     0.1535E-04  -6.90533  17.26332
     156.50   3.194514     0.1494E-04  -6.91709  17.29273
     157.50   3.197281     0.3261E-04  -6.57808  16.44521
     158.50   3.200029     0.3969E-04  -6.49273  16.23183
     159.50   3.202761     0.4694E-04  -6.41989  16.04973
     160.50   3.205475     0.4983E-04  -6.39394  15.98485
     161.50   3.208173     0.5444E-04  -6.35556  15.88890
     162.50   3.210853     0.6198E-04  -6.29919  15.74798
     163.50   3.213518     0.7775E-04  -6.20073  15.50182
     164.50   3.216166     0.1124E-03  -6.04062  15.10156
     165.50   3.218798     0.7881E-04  -6.19489  15.48723
     166.50   3.221414     0.1362E-03  -5.95742  14.89356
     167.20   3.223236     0.9529E-04  -6.11241  15.28101
     167.70   3.224533     0.3948E-03  -5.49503  13.73757
     168.50   3.226600     0.4432E-03  -5.44488  13.61221
     169.50   3.229170     0.5708E-03  -5.33498  13.33745
     170.50   3.231725     0.6102E-03  -5.30599  13.26498
     171.50   3.234264     0.5837E-03  -5.32528  13.31321
     172.50   3.236789     0.7985E-03  -5.18915  12.97286
     173.50   3.239300     0.9642E-03  -5.10727  12.76817
     174.50   3.241796     0.1369E-02  -4.95501  12.38754
     175.50   3.244277     0.1826E-02  -4.83005  12.07513
     176.50   3.246745     0.1770E-02  -4.84336  12.10840
     177.50   3.249198     0.1866E-02  -4.82064  12.05160
     178.50   3.251638     0.2593E-02  -4.67762  11.69406
     179.50   3.254065     0.2980E-02  -4.61730  11.54324
     180.50   3.256477     0.3467E-02  -4.55150  11.37874
     181.50   3.258877     0.3212E-02  -4.58469  11.46173
     182.50   3.261263     0.4314E-02  -4.45653  11.14133
     183.50   3.263636     0.4409E-02  -4.44715  11.11787
     184.50   3.265996     0.3460E-02  -4.55238  11.38095
     185.50   3.268344     0.4794E-02  -4.41072  11.02680
     186.50   3.270679     0.5778E-02  -4.32969  10.82423
     187.50   3.273001     0.6283E-02  -4.29326  10.73316
     188.50   3.275311     0.6852E-02  -4.25563  10.63907
     189.50   3.277609     0.9196E-02  -4.12787  10.31966
     190.50   3.279895     0.8934E-02  -4.14042  10.35104
     191.50   3.282169     0.1025E-01  -4.08066  10.20164
     192.50   3.284431     0.1035E-01  -4.07631  10.19079
     193.50   3.286681     0.7014E-02  -4.24545  10.61363
     194.50   3.288920     0.1352E-01  -3.96047   9.90118
     195.50   3.291147     0.1472E-01  -3.92351   9.80878
     196.70   3.293804     0.1895E-01  -3.81383   9.53458
     197.60   3.295787     0.1902E-01  -3.81228   9.53070
     198.40   3.297542     0.2156E-01  -3.75772   9.39429
     199.50   3.299943     0.2186E-01  -3.75179   9.37948
     200.50   3.302114     0.2178E-01  -3.75338   9.38344
     201.50   3.304275     0.2440E-01  -3.70409   9.26022
     202.50   3.306425     0.1994E-01  -3.79164   9.47910
     203.50   3.308564     0.2747E-01  -3.65264   9.13161
     204.50   3.310693     0.3158E-01  -3.59200   8.98001
     205.50   3.312812     0.3391E-01  -3.56108   8.90271
     206.50   3.314920     0.3407E-01  -3.55907   8.89767
     207.40   3.316809     0.3616E-01  -3.53316   8.83291
     207.80   3.317646     0.7839E-01  -3.19720   7.99299
     208.50   3.319106     0.1009E+00  -3.08774   7.71936
     209.50   3.321184     0.9711E-01  -3.10419   7.76047
     210.50   3.323252     0.1006E+00  -3.08878   7.72196
     211.50   3.325310     0.1190E+00  -3.01583   7.53958
     212.50   3.327359     0.1086E+00  -3.05548   7.63871
     213.50   3.329398     0.1191E+00  -3.01547   7.53867
     214.50   3.331427     0.1433E+00  -2.93515   7.33788
     215.50   3.333447     0.1337E+00  -2.96533   7.41332
     216.50   3.335458     0.1276E+00  -2.98568   7.46419
     217.50   3.337459     0.1280E+00  -2.98411   7.46027
     218.50   3.339452     0.1631E+00  -2.87906   7.19765
     219.50   3.341434     0.1692E+00  -2.86294   7.15734
     220.50   3.343409     0.1740E+00  -2.85082   7.12704
     221.50   3.345374     0.1435E+00  -2.93464   7.33661
     222.50   3.347330     0.1783E+00  -2.84040   7.10100
     223.50   3.349277     0.2498E+00  -2.69388   6.73469
     224.50   3.351216     0.2489E+00  -2.69546   6.73864
     225.50   3.353147     0.2078E+00  -2.77383   6.93457
     226.50   3.355068     0.1698E+00  -2.86155   7.15388
     227.50   3.356982     0.1953E+00  -2.80081   7.00203
     228.50   3.358886     0.2894E+00  -2.63002   6.57504
     229.50   3.360783     0.2451E+00  -2.70204   6.75509
     230.50   3.362671     0.2682E+00  -2.66304   6.65760
     231.50   3.364551     0.2665E+00  -2.66571   6.66428
     232.50   3.366423     0.2610E+00  -2.67472   6.68681
     233.50   3.368287     0.2727E+00  -2.65576   6.63941
     234.50   3.370143     0.1851E+00  -2.82393   7.05982
     235.50   3.371991     0.2961E+00  -2.62001   6.55002
     236.50   3.373831     0.2173E+00  -2.75437   6.88593
     237.50   3.375664     0.2665E+00  -2.66582   6.66454
     238.50   3.377488     0.1964E+00  -2.79829   6.99574
     239.50   3.379306     0.2374E+00  -2.71592   6.78980
     240.50   3.381115     0.2679E+00  -2.66346   6.65866
     241.50   3.382917     0.2504E+00  -2.69280   6.73201
     242.50   3.384712     0.4018E+00  -2.48746   6.21865
     243.50   3.386499     0.4387E+00  -2.44924   6.12309
     244.50   3.388279     0.5410E+00  -2.35825   5.89563
     245.50   3.390052     0.5903E+00  -2.32036   5.80091
     246.50   3.391817     0.4582E+00  -2.43038   6.07595
     247.50   3.393575     0.4215E+00  -2.46669   6.16672
     248.50   3.395326     0.1791E+00  -2.83832   7.09581
     249.50   3.397071     0.2746E+00  -2.65278   6.63196
     250.50   3.398808     0.4676E+00  -2.42160   6.05400
     251.30   3.400192     0.2339E+00  -2.72239   6.80598
     251.80   3.401056     0.1644E+00  -2.87563   7.18908
     252.50   3.402261     0.1905E+00  -2.81164   7.02909
     253.50   3.403978     0.4364E+00  -2.45153   6.12882
     254.50   3.405688     0.4604E+00  -2.42831   6.07077
     255.50   3.407391     0.1106E+01  -2.04760   5.11901
     256.50   3.409087     0.7599E+00  -2.21069   5.52672
     257.50   3.410777     0.1103E+01  -2.04897   5.12243
     258.50   3.412461     0.1000E+01  -2.09133   5.22832
     259.50   3.414137     0.9486E+00  -2.11435   5.28588
     260.50   3.415808     0.8833E+00  -2.14535   5.36337
     261.50   3.417472     0.7884E+00  -2.19471   5.48678
     262.50   3.419129     0.1115E+01  -2.04404   5.11009
     263.50   3.420781     0.2276E+01  -1.73419   4.33547
     264.50   3.422426     0.2866E+01  -1.63423   4.08558
     265.50   3.424065     0.5086E+01  -1.38504   3.46260
     266.50   3.425697     0.2654E+01  -1.66748   4.16870
     267.50   3.427324     0.2949E+01  -1.62180   4.05449
     268.50   3.428944     0.3857E+01  -1.50519   3.76297
     269.50   3.430559     0.2345E+01  -1.72124   4.30311
     270.50   3.432167     0.3405E+01  -1.55930   3.89825
     271.50   3.433770     0.2247E+01  -1.73978   4.34946
     272.50   3.435366     0.1341E+01  -1.96406   4.91016
     273.50   3.436957     0.1971E+01  -1.79678   4.49194
     274.50   3.438542     0.1322E+01  -1.97035   4.92587
     275.50   3.440122     0.1862E+01  -1.82145   4.55362
     276.50   3.441695     0.2568E+01  -1.68181   4.20452
     277.50   3.443263     0.2751E+01  -1.65202   4.13005
     278.50   3.444825     0.1628E+01  -1.87967   4.69918
     279.50   3.446382     0.7661E+00  -2.20716   5.51791
     280.50   3.447933     0.9420E+00  -2.11742   5.29354
     281.50   3.449478     0.2449E+01  -1.70250   4.25626
     282.50   3.451018     0.3364E+01  -1.56454   3.91135
     283.50   3.452553     0.2813E+01  -1.64225   4.10562
     284.50   3.454082     0.1583E+01  -1.89203   4.73008
     285.50   3.455606     0.7523E+00  -2.21504   5.53760
     286.50   3.457125     0.2389E+01  -1.71331   4.28326
     287.50   3.458638     0.4455E+01  -1.44259   3.60648
     288.50   3.460146     0.4434E+01  -1.44466   3.61165
     289.50   3.461648     0.6493E+01  -1.27902   3.19756
     291.00   3.463893     0.1017E+02  -1.08391   2.70978
     293.00   3.466868     0.9051E+01  -1.13476   2.83689
     295.00   3.469822     0.8359E+01  -1.16930   2.92324
     297.00   3.472756     0.8761E+01  -1.14889   2.87224
     299.00   3.475671     0.9178E+01  -1.12867   2.82168
     301.00   3.478566     0.8733E+01  -1.15030   2.87575
     303.00   3.481443     0.1036E+02  -1.07625   2.69062
     305.00   3.484300     0.1064E+02  -1.06439   2.66098
     307.00   3.487138     0.1222E+02  -1.00454   2.51136
     309.00   3.489959     0.1091E+02  -1.05367   2.63418
     311.00   3.492760     0.1459E+02  -0.92727   2.31817
     313.00   3.495544     0.1270E+02  -0.98747   2.46868
     315.00   3.498311     0.1347E+02  -0.96211   2.40528
     317.00   3.501059     0.1576E+02  -0.89400   2.23501
     319.00   3.503791     0.1285E+02  -0.98245   2.45613
     321.00   3.506505     0.1423E+02  -0.93825   2.34562
     323.00   3.509202     0.1192E+02  -1.01521   2.53802
     325.00   3.511883     0.1875E+02  -0.81853   2.04633
     327.00   3.514548     0.2263E+02  -0.73681   1.84201
     329.00   3.517196     0.2249E+02  -0.73938   1.84845
     331.00   3.519828     0.1999E+02  -0.79055   1.97638
     333.00   3.522444     0.2118E+02  -0.76556   1.91391
     335.00   3.525045     0.2037E+02  -0.78236   1.95589
     337.00   3.527630     0.1379E+02  -0.95204   2.38009
     339.00   3.530200     0.1635E+02  -0.87780   2.19450
     341.00   3.532754     0.1709E+02  -0.85878   2.14696
     343.00   3.535294     0.1842E+02  -0.82620   2.06549
     345.00   3.537819     0.2052E+02  -0.77919   1.94797
     347.00   3.540329     0.2174E+02  -0.75410   1.88525
     349.00   3.542825     0.2545E+02  -0.68575   1.71438
     351.00   3.545307     0.2751E+02  -0.65194   1.62984
     353.00   3.547775     0.2342E+02  -0.72182   1.80455
     355.00   3.550228     0.2677E+02  -0.66374   1.65934
     357.00   3.552668     0.1714E+02  -0.85737   2.14341
     359.00   3.555094     0.1875E+02  -0.81834   2.04586
     361.00   3.557507     0.2568E+02  -0.68178   1.70445
     363.00   3.559907     0.2769E+02  -0.64905   1.62261
     364.00   3.561101     0.2817E+02  -0.64159   1.60397
     365.00   3.562293     0.3155E+02  -0.59248   1.48119
     367.00   3.564666     0.3535E+02  -0.54302   1.35755
     369.00   3.567026     0.2981E+02  -0.61709   1.54273
     371.00   3.569374     0.3058E+02  -0.60603   1.51508
     373.00   3.571709     0.1668E+02  -0.86936   2.17340
     375.00   3.574031     0.1969E+02  -0.79718   1.99294
     377.00   3.576341     0.2927E+02  -0.62497   1.56241
     379.00   3.578639     0.3006E+02  -0.61341   1.53352
     381.00   3.580925     0.2618E+02  -0.67353   1.68383
     383.00   3.583199     0.1279E+02  -0.98468   2.46171
     385.00   3.585461     0.1802E+02  -0.83577   2.08944
     387.00   3.587711     0.1818E+02  -0.83186   2.07965
     389.00   3.589950     0.2743E+02  -0.65323   1.63309
     391.00   3.592177     0.3548E+02  -0.54143   1.35358
     393.00   3.594393     0.1559E+02  -0.89856   2.24640
     395.00   3.596597     0.2965E+02  -0.61945   1.54863
     397.00   3.598790     0.2019E+02  -0.78621   1.96552
     399.00   3.600973     0.5100E+02  -0.38389   0.95974
     401.00   3.603144     0.5823E+02  -0.32630   0.81575
     403.00   3.605305     0.5684E+02  -0.33678   0.84196
     405.00   3.607455     0.5393E+02  -0.35960   0.89901
     407.00   3.609594     0.4930E+02  -0.39862   0.99655
     409.00   3.611723     0.6728E+02  -0.26359   0.65897
     411.00   3.613842     0.6259E+02  -0.29493   0.73732
     413.00   3.615950     0.5839E+02  -0.32512   0.81280
     415.00   3.618048     0.5639E+02  -0.34027   0.85068
     417.00   3.620136     0.5794E+02  -0.32843   0.82108
     419.00   3.622214     0.5743E+02  -0.33228   0.83070
     421.00   3.624282     0.5828E+02  -0.32591   0.81479
     423.00   3.626340     0.5207E+02  -0.37490   0.93724
     425.00   3.628389     0.6079E+02  -0.30765   0.76911
     427.00   3.630428     0.5677E+02  -0.33734   0.84335
     429.00   3.632457     0.5332E+02  -0.36458   0.91145
     431.00   3.634477     0.4712E+02  -0.41822   1.04555
     433.00   3.636488     0.7354E+02  -0.22495   0.56237
     435.00   3.638489     0.7573E+02  -0.21219   0.53047
     437.00   3.640481     0.8241E+02  -0.17548   0.43870
     439.00   3.642465     0.6981E+02  -0.24752   0.61879
     441.00   3.644439     0.7414E+02  -0.22141   0.55353
     443.00   3.646404     0.8107E+02  -0.18260   0.45651
     445.00   3.648360     0.8308E+02  -0.17194   0.42986
     447.00   3.650307     0.9118E+02  -0.13156   0.32889
     449.00   3.652246     0.9492E+02  -0.11407   0.28518
     451.00   3.654176     0.1128E+03  -0.03897   0.09742
     453.00   3.656098     0.9415E+02  -0.11762   0.29405
     455.00   3.658011     0.1008E+03  -0.08820   0.22050
     457.00   3.659916     0.1118E+03  -0.04284   0.10709
     459.00   3.661813     0.1042E+03  -0.07358   0.18394
     461.00   3.663701     0.1076E+03  -0.05957   0.14894
     463.00   3.665581     0.1037E+03  -0.07569   0.18923
     465.00   3.667453     0.1055E+03  -0.06817   0.17042
     467.00   3.669317     0.1125E+03  -0.04018   0.10046
     469.00   3.671173     0.1100E+03  -0.05020   0.12549
     471.00   3.673021     0.1063E+03  -0.06477   0.16192
     473.00   3.674861     0.1105E+03  -0.04819   0.12047
     475.00   3.676694     0.1139E+03  -0.03504   0.08759
     477.00   3.678518     0.1101E+03  -0.04955   0.12387
     479.00   3.680336     0.1121E+03  -0.04186   0.10465
     481.00   3.682145     0.1130E+03  -0.03823   0.09557
     483.00   3.683947     0.1188E+03  -0.01670   0.04176
     485.00   3.685742     0.1128E+03  -0.03915   0.09788
     487.00   3.687529     0.1035E+03  -0.07663   0.19158
     489.00   3.689309     0.1151E+03  -0.03037   0.07591
     491.00   3.691082     0.1159E+03  -0.02742   0.06855
     493.00   3.692847     0.1131E+03  -0.03812   0.09530
     495.00   3.694605     0.1179E+03  -0.02000   0.05000
     497.00   3.696356     0.1115E+03  -0.04428   0.11069
     499.00   3.698101     0.1025E+03  -0.08079   0.20198
     501.00   3.699838     0.9463E+02  -0.11544   0.28859
     503.00   3.701568     0.1031E+03  -0.07818   0.19546
     505.00   3.703291     0.1028E+03  -0.07933   0.19832
     507.00   3.705008     0.1080E+03  -0.05815   0.14537
     509.00   3.706718     0.1006E+03  -0.08886   0.22216
     511.00   3.708421     0.1043E+03  -0.07306   0.18265
     513.00   3.710117     0.9996E+02  -0.09161   0.22903
     515.00   3.711807     0.9590E+02  -0.10964   0.27410
     517.00   3.713490     0.8209E+02  -0.17715   0.44287
     519.00   3.715167     0.8736E+02  -0.15011   0.37529
     521.00   3.716838     0.9910E+02  -0.09536   0.23839
     523.00   3.718502     0.1138E+03  -0.03543   0.08857
     525.00   3.720159     0.1213E+03  -0.00748   0.01869
     527.00   3.721811     0.1026E+03  -0.08027   0.20068
     529.00   3.723456     0.1251E+03   0.00598  -0.01494
     531.00   3.725095     0.1362E+03   0.04264  -0.10660
     533.00   3.726727     0.1144E+03  -0.03320   0.08300
     535.00   3.728354     0.1301E+03   0.02275  -0.05688
     537.00   3.729974     0.1285E+03   0.01756  -0.04389
     539.00   3.731589     0.1249E+03   0.00498  -0.01246
     541.00   3.733197     0.1234E+03  -0.00001   0.00004
     543.00   3.734800     0.1257E+03   0.00806  -0.02015
     545.00   3.736397     0.1276E+03   0.01437  -0.03593
     547.00   3.737987     0.1244E+03   0.00324  -0.00809
     549.00   3.739572     0.1256E+03   0.00761  -0.01902
     551.00   3.741152     0.1234E+03   0.00000   0.00000
     553.00   3.742725     0.1308E+03   0.02520  -0.06300
     555.00   3.744293     0.1341E+03   0.03587  -0.08967
     557.00   3.745855     0.1313E+03   0.02669  -0.06671
     559.00   3.747412     0.1265E+03   0.01048  -0.02619
     561.00   3.748963     0.1315E+03   0.02756  -0.06890
     563.00   3.750508     0.1307E+03   0.02482  -0.06205
     565.00   3.752048     0.1344E+03   0.03689  -0.09222
     567.00   3.753583     0.1310E+03   0.02582  -0.06456
     569.00   3.755112     0.1370E+03   0.04533  -0.11332
     571.00   3.756636     0.1315E+03   0.02762  -0.06904
     573.00   3.758155     0.1463E+03   0.07388  -0.18471
     575.00   3.759668     0.1394E+03   0.05293  -0.13232
     577.00   3.761176     0.1414E+03   0.05906  -0.14764
     579.00   3.762679     0.1345E+03   0.03717  -0.09292
     581.00   3.764176     0.1420E+03   0.06081  -0.15204
     583.00   3.765669     0.1474E+03   0.07717  -0.19293
     585.00   3.767156     0.1404E+03   0.05578  -0.13945
     587.00   3.768638     0.1391E+03   0.05190  -0.12975
     589.00   3.770115     0.1136E+03  -0.03613   0.09034
     591.00   3.771587     0.1355E+03   0.04047  -0.10118
     593.00   3.773055     0.1384E+03   0.04954  -0.12385
     595.00   3.774517     0.1389E+03   0.05126  -0.12815
     597.00   3.775974     0.1427E+03   0.06313  -0.15781
     599.00   3.777427     0.1401E+03   0.05502  -0.13755
     601.00   3.778874     0.1385E+03   0.05006  -0.12515
     603.00   3.780317     0.1443E+03   0.06787  -0.16968
     605.00   3.781755     0.1479E+03   0.07852  -0.19630
     607.00   3.783189     0.1478E+03   0.07832  -0.19580
     609.00   3.784617     0.1414E+03   0.05902  -0.14754
     611.00   3.786041     0.1425E+03   0.06235  -0.15589
     613.00   3.787461     0.1328E+03   0.03173  -0.07932
     615.00   3.788875     0.1376E+03   0.04709  -0.11772
     617.00   3.790285     0.1251E+03   0.00576  -0.01441
     619.00   3.791691     0.1356E+03   0.04083  -0.10207
     621.00   3.793092     0.1333E+03   0.03344  -0.08360
     623.00   3.794488     0.1279E+03   0.01553  -0.03883
     625.00   3.795880     0.1241E+03   0.00236  -0.00589
     627.00   3.797267     0.1315E+03   0.02764  -0.06910
     629.00   3.798651     0.1363E+03   0.04299  -0.10748
     631.00   3.800029     0.1327E+03   0.03144  -0.07860
     633.00   3.801404     0.1356E+03   0.04074  -0.10185
     635.00   3.802774     0.1356E+03   0.04094  -0.10235
     637.00   3.804139     0.1356E+03   0.04071  -0.10177
     639.00   3.805501     0.1405E+03   0.05627  -0.14067
     641.00   3.806858     0.1375E+03   0.04680  -0.11701
     643.00   3.808211     0.1391E+03   0.05180  -0.12949
     645.00   3.809560     0.1383E+03   0.04935  -0.12337
     647.00   3.810904     0.1382E+03   0.04908  -0.12270
     649.00   3.812245     0.1356E+03   0.04091  -0.10227
     651.00   3.813581     0.1423E+03   0.06177  -0.15441
     653.00   3.814913     0.1427E+03   0.06283  -0.15707
     655.00   3.816241     0.1400E+03   0.05476  -0.13691
     657.00   3.817565     0.1349E+03   0.03865  -0.09663
     659.00   3.818885     0.1397E+03   0.05363  -0.13407
     661.00   3.820201     0.1408E+03   0.05722  -0.14305
     663.00   3.821513     0.1381E+03   0.04870  -0.12176
     665.00   3.822822     0.1371E+03   0.04569  -0.11423
     667.00   3.824126     0.1322E+03   0.02978  -0.07444
     669.00   3.825426     0.1329E+03   0.03198  -0.07994
     671.00   3.826723     0.1255E+03   0.00707  -0.01767
     673.00   3.828015     0.1294E+03   0.02037  -0.05092
     675.00   3.829304     0.1266E+03   0.01085  -0.02712
     677.00   3.830589     0.1274E+03   0.01375  -0.03436
     679.00   3.831870     0.1254E+03   0.00681  -0.01704
     681.00   3.833147     0.1272E+03   0.01289  -0.03224
     683.00   3.834421     0.1298E+03   0.02194  -0.05485
     685.00   3.835690     0.1263E+03   0.00994  -0.02485
     687.00   3.836957     0.1295E+03   0.02086  -0.05214
     689.00   3.838219     0.1331E+03   0.03271  -0.08177
     691.00   3.839478     0.1346E+03   0.03757  -0.09393
     693.00   3.840733     0.1340E+03   0.03572  -0.08930
     695.00   3.841985     0.1355E+03   0.04057  -0.10142
     697.00   3.843233     0.1394E+03   0.05292  -0.13231
     699.00   3.844477     0.1402E+03   0.05532  -0.13830
     701.00   3.845718     0.1402E+03   0.05529  -0.13823
     703.00   3.846955     0.1425E+03   0.06237  -0.15594
     705.00   3.848189     0.1402E+03   0.05527  -0.13816
     707.00   3.849419     0.1317E+03   0.02814  -0.07035
     709.00   3.850646     0.1226E+03  -0.00289   0.00724
     711.00   3.851870     0.1171E+03  -0.02282   0.05704
     713.00   3.853090     0.1133E+03  -0.03715   0.09288
     715.00   3.854306     0.1127E+03  -0.03948   0.09870
     717.00   3.855519     0.1153E+03  -0.02974   0.07434
     719.00   3.856729     0.1128E+03  -0.03903   0.09758
     721.00   3.857935     0.1170E+03  -0.02314   0.05786
     723.00   3.859138     0.1218E+03  -0.00573   0.01432
     725.00   3.860338     0.1243E+03   0.00309  -0.00774
     727.00   3.861534     0.1267E+03   0.01139  -0.02846
     729.00   3.862728     0.1274E+03   0.01360  -0.03399
     731.00   3.863917     0.1350E+03   0.03889  -0.09723
     733.00   3.865104     0.1357E+03   0.04105  -0.10262
     735.00   3.866287     0.1411E+03   0.05819  -0.14547
     737.00   3.867467     0.1478E+03   0.07833  -0.19583
     739.00   3.868644     0.1449E+03   0.06954  -0.17384
     741.00   3.869818     0.1491E+03   0.08206  -0.20514
     743.00   3.870989     0.1541E+03   0.09644  -0.24110
     745.00   3.872156     0.1529E+03   0.09284  -0.23211
     747.00   3.873321     0.1606E+03   0.11431  -0.28576
     749.00   3.874482     0.1602E+03   0.11319  -0.28297
     751.00   3.875640     0.1619E+03   0.11786  -0.29465
     753.00   3.876795     0.1675E+03   0.13257  -0.33142
     755.00   3.877947     0.1696E+03   0.13808  -0.34521
     757.00   3.879096     0.1708E+03   0.14096  -0.35241
     759.00   3.880242     0.1619E+03   0.11788  -0.29471
     761.00   3.881385     0.1541E+03   0.09646  -0.24114
     763.00   3.882524     0.1452E+03   0.07066  -0.17664
     765.00   3.883662     0.1360E+03   0.04199  -0.10498
     767.00   3.884795     0.1254E+03   0.00696  -0.01739
     769.00   3.885926     0.1284E+03   0.01698  -0.04244
     771.00   3.887054     0.1260E+03   0.00892  -0.02230
     773.00   3.888180     0.1260E+03   0.00906  -0.02266
     775.00   3.889302     0.1253E+03   0.00638  -0.01595
     777.00   3.890421     0.1276E+03   0.01452  -0.03629
     779.00   3.891537     0.1290E+03   0.01906  -0.04765
     781.00   3.892651     0.1293E+03   0.02013  -0.05033
     783.00   3.893762     0.1293E+03   0.02004  -0.05010
     785.00   3.894870     0.1271E+03   0.01274  -0.03185
     787.00   3.895975     0.1307E+03   0.02476  -0.06190
     789.00   3.897077     0.1301E+03   0.02276  -0.05689
     791.00   3.898176     0.1261E+03   0.00933  -0.02332
     793.00   3.899273     0.1281E+03   0.01618  -0.04044
     795.00   3.900367     0.1279E+03   0.01537  -0.03844
     797.00   3.901458     0.1328E+03   0.03160  -0.07899
     799.00   3.902547     0.1333E+03   0.03353  -0.08382
     801.00   3.903632     0.1377E+03   0.04759  -0.11898
     803.00   3.904716     0.1396E+03   0.05358  -0.13396
     805.00   3.905796     0.1398E+03   0.05416  -0.13540
     807.00   3.906873     0.1460E+03   0.07305  -0.18262
     809.00   3.907948     0.1461E+03   0.07335  -0.18338
     811.00   3.909021     0.1491E+03   0.08215  -0.20537
     813.00   3.910090     0.1574E+03   0.10548  -0.26369
     815.00   3.911158     0.1623E+03   0.11880  -0.29699
     817.00   3.912222     0.1651E+03   0.12641  -0.31603
     819.00   3.913284     0.1625E+03   0.11928  -0.29820
     821.00   3.914343     0.1514E+03   0.08860  -0.22149
     823.00   3.915400     0.1521E+03   0.09075  -0.22686
     825.00   3.916454     0.1512E+03   0.08797  -0.21992
     827.00   3.917506     0.1519E+03   0.09012  -0.22530
     829.00   3.918555     0.1495E+03   0.08308  -0.20770
     831.00   3.919601     0.1435E+03   0.06534  -0.16335
     833.00   3.920645     0.1420E+03   0.06071  -0.15177
     835.00   3.921686     0.1414E+03   0.05901  -0.14752
     837.00   3.922725     0.1428E+03   0.06336  -0.15840
     839.00   3.923762     0.1382E+03   0.04907  -0.12268
     841.00   3.924796     0.1431E+03   0.06417  -0.16043
     843.00   3.925828     0.1367E+03   0.04428  -0.11069
     845.00   3.926857     0.1268E+03   0.01173  -0.02932
     847.00   3.927883     0.1266E+03   0.01090  -0.02725
     849.00   3.928908     0.1286E+03   0.01765  -0.04413
     851.00   3.929929     0.1226E+03  -0.00287   0.00718
     853.00   3.930949     0.1273E+03   0.01344  -0.03361
     855.00   3.931966     0.1195E+03  -0.01392   0.03479
     857.00   3.932981     0.1347E+03   0.03789  -0.09472
     859.00   3.933993     0.1340E+03   0.03574  -0.08935
     861.00   3.935003     0.1378E+03   0.04780  -0.11951
     863.00   3.936011     0.1416E+03   0.05964  -0.14909
     865.00   3.937016     0.1423E+03   0.06184  -0.15459
     867.00   3.938019     0.1295E+03   0.02091  -0.05228
     869.00   3.939020     0.1421E+03   0.06129  -0.15323
     871.00   3.940018     0.1487E+03   0.08074  -0.20184
     873.00   3.941014     0.1510E+03   0.08742  -0.21855
     875.00   3.942008     0.1508E+03   0.08683  -0.21709
     877.00   3.943000     0.1529E+03   0.09310  -0.23275
     879.00   3.943989     0.1596E+03   0.11152  -0.27880
     881.00   3.944976     0.1580E+03   0.10734  -0.26834
     883.00   3.945961     0.1601E+03   0.11299  -0.28249
     885.00   3.946943     0.1552E+03   0.09955  -0.24886
     887.00   3.947924     0.1458E+03   0.07218  -0.18045
     889.00   3.948902     0.1451E+03   0.07031  -0.17577
     891.00   3.949878     0.1478E+03   0.07821  -0.19553
     893.00   3.950851     0.1459E+03   0.07266  -0.18164
     895.00   3.951823     0.1474E+03   0.07718  -0.19296
     897.00   3.952792     0.1481E+03   0.07911  -0.19778
     899.00   3.953760     0.1487E+03   0.08094  -0.20235
     901.00   3.954725     0.1467E+03   0.07508  -0.18771
     903.00   3.955688     0.1545E+03   0.09756  -0.24391
     905.00   3.956649     0.1616E+03   0.11695  -0.29237
     907.00   3.957607     0.1650E+03   0.12610  -0.31524
     909.00   3.958564     0.1652E+03   0.12669  -0.31672
     911.00   3.959518     0.1683E+03   0.13475  -0.33687
     913.00   3.960471     0.1712E+03   0.14208  -0.35520
     915.00   3.961421     0.1701E+03   0.13931  -0.34827
     917.00   3.962369     0.1706E+03   0.14042  -0.35104
     919.00   3.963315     0.1727E+03   0.14594  -0.36486
     921.00   3.964260     0.1619E+03   0.11784  -0.29460
     923.00   3.965202     0.1582E+03   0.10786  -0.26966
     925.00   3.966142     0.1550E+03   0.09875  -0.24687
     927.00   3.967080     0.1588E+03   0.10940  -0.27349
     929.00   3.968016     0.1518E+03   0.08969  -0.22422
     931.00   3.968950     0.1525E+03   0.09189  -0.22972
     933.00   3.969882     0.1551E+03   0.09907  -0.24767
     935.00   3.970812     0.1551E+03   0.09920  -0.24801
     937.00   3.971740     0.1506E+03   0.08636  -0.21591
     939.00   3.972666     0.1559E+03   0.10149  -0.25372
     941.00   3.973590     0.1553E+03   0.09965  -0.24912
     943.00   3.974512     0.1587E+03   0.10927  -0.27316
     945.00   3.975432     0.1580E+03   0.10726  -0.26814
     947.00   3.976350     0.1633E+03   0.12149  -0.30371
     949.00   3.977266     0.1647E+03   0.12518  -0.31296
     951.00   3.978180     0.1570E+03   0.10456  -0.26141
     953.00   3.979093     0.1615E+03   0.11685  -0.29212
     955.00   3.980003     0.1608E+03   0.11492  -0.28729
     957.00   3.980912     0.1636E+03   0.12231  -0.30576
     959.00   3.981819     0.1657E+03   0.12795  -0.31988
     961.00   3.982723     0.1643E+03   0.12408  -0.31020
     963.00   3.983626     0.1673E+03   0.13194  -0.32986
     965.00   3.984527     0.1653E+03   0.12685  -0.31712
     967.00   3.985426     0.1662E+03   0.12924  -0.32310
     969.00   3.986324     0.1681E+03   0.13407  -0.33517
     971.00   3.987219     0.1640E+03   0.12331  -0.30828
     973.00   3.988113     0.1614E+03   0.11651  -0.29127
     975.00   3.989005     0.1615E+03   0.11660  -0.29150
     977.00   3.989895     0.1627E+03   0.12003  -0.30006
     979.00   3.990783     0.1615E+03   0.11683  -0.29207
     981.00   3.991669     0.1653E+03   0.12696  -0.31739
     983.00   3.992553     0.1636E+03   0.12228  -0.30570
     985.00   3.993436     0.1647E+03   0.12523  -0.31307
     987.00   3.994317     0.1639E+03   0.12312  -0.30781
     989.00   3.995196     0.1639E+03   0.12309  -0.30771
     991.00   3.996074     0.1640E+03   0.12349  -0.30873
     993.00   3.996949     0.1656E+03   0.12758  -0.31895
     995.00   3.997823     0.1669E+03   0.13104  -0.32759
     997.00   3.998695     0.1672E+03   0.13181  -0.32951
     999.00   3.999566     0.1669E+03   0.13098  -0.32745
    1003.00   4.001301     0.1690E+03   0.13638  -0.34095
    1008.00   4.003461     0.1690E+03   0.13646  -0.34114
    1013.00   4.005610     0.1744E+03   0.14998  -0.37495
    1018.00   4.007748     0.1724E+03   0.14518  -0.36294
    1023.00   4.009875     0.1749E+03   0.15142  -0.37854
    1028.00   4.011993     0.1762E+03   0.15467  -0.38667
    1033.00   4.014100     0.1763E+03   0.15472  -0.38681
    1038.00   4.016197     0.1757E+03   0.15340  -0.38350
    1043.00   4.018284     0.1775E+03   0.15784  -0.39459
    1048.00   4.020361     0.1771E+03   0.15668  -0.39170
    1053.00   4.022429     0.1721E+03   0.14436  -0.36090
    1058.00   4.024486     0.1670E+03   0.13125  -0.32812
    1063.00   4.026533     0.1657E+03   0.12779  -0.31948
    1068.00   4.028571     0.1675E+03   0.13250  -0.33125
    1073.00   4.030600     0.1701E+03   0.13930  -0.34824
    1078.00   4.032619     0.1698E+03   0.13851  -0.34627
    1083.00   4.034628     0.1679E+03   0.13368  -0.33421
    1088.00   4.036629     0.1668E+03   0.13082  -0.32706
    1093.00   4.038620     0.1662E+03   0.12920  -0.32300
    1098.00   4.040603     0.1638E+03   0.12294  -0.30735
    1103.00   4.042576     0.1631E+03   0.12104  -0.30261
    1108.00   4.044539     0.1560E+03   0.10166  -0.25416
    1113.00   4.046495     0.1577E+03   0.10648  -0.26621
    1118.00   4.048442     0.1576E+03   0.10613  -0.26533
    1123.00   4.050380     0.1587E+03   0.10900  -0.27250
    1128.00   4.052309     0.1594E+03   0.11096  -0.27741
    1133.00   4.054230     0.1598E+03   0.11204  -0.28011
    1138.00   4.056142     0.1600E+03   0.11258  -0.28145
    1143.00   4.058046     0.1596E+03   0.11170  -0.27924
    1148.00   4.059942     0.1612E+03   0.11597  -0.28992
    1153.00   4.061830     0.1617E+03   0.11734  -0.29336
    1158.00   4.063708     0.1610E+03   0.11544  -0.28861
    1163.00   4.065579     0.1600E+03   0.11255  -0.28136
    1168.00   4.067443     0.1602E+03   0.11312  -0.28280
    1173.00   4.069298     0.1598E+03   0.11201  -0.28003
    1178.00   4.071145     0.1565E+03   0.10316  -0.25790
    1183.00   4.072985     0.1540E+03   0.09594  -0.23984
    1188.00   4.074817     0.1524E+03   0.09140  -0.22851
    1193.00   4.076640     0.1545E+03   0.09762  -0.24404
    1198.00   4.078457     0.1517E+03   0.08962  -0.22405
    1203.00   4.080266     0.1549E+03   0.09857  -0.24643
    1208.00   4.082067     0.1547E+03   0.09791  -0.24479
    1213.00   4.083861     0.1553E+03   0.09967  -0.24918
    1218.00   4.085648     0.1557E+03   0.10093  -0.25232
    1223.00   4.087426     0.1553E+03   0.09975  -0.24938
    1228.00   4.089198     0.1547E+03   0.09806  -0.24516
    1233.00   4.090963     0.1540E+03   0.09618  -0.24045
    1238.00   4.092721     0.1539E+03   0.09580  -0.23950
    1243.00   4.094471     0.1500E+03   0.08456  -0.21140
    1248.00   4.096214     0.1507E+03   0.08677  -0.21693
    1253.00   4.097951     0.1503E+03   0.08541  -0.21353
    1258.00   4.099681     0.1487E+03   0.08079  -0.20197
    1263.00   4.101403     0.1489E+03   0.08152  -0.20379
    1268.00   4.103119     0.1485E+03   0.08029  -0.20071
    1273.00   4.104828     0.1482E+03   0.07940  -0.19849
    1278.00   4.106531     0.1488E+03   0.08118  -0.20295
    1283.00   4.108227     0.1462E+03   0.07349  -0.18373
    1288.00   4.109916     0.1474E+03   0.07710  -0.19276
    1293.00   4.111598     0.1465E+03   0.07434  -0.18586
    1298.00   4.113275     0.1477E+03   0.07807  -0.19517
    1303.00   4.114944     0.1465E+03   0.07440  -0.18600
    1308.00   4.116608     0.1466E+03   0.07459  -0.18647
    1313.00   4.118265     0.1441E+03   0.06711  -0.16778
    1318.00   4.119915     0.1435E+03   0.06532  -0.16331
    1323.00   4.121560     0.1431E+03   0.06419  -0.16047
    1328.00   4.123198     0.1411E+03   0.05820  -0.14550
    1333.00   4.124830     0.1410E+03   0.05782  -0.14456
    1338.00   4.126456     0.1397E+03   0.05363  -0.13406
    1343.00   4.128076     0.1395E+03   0.05302  -0.13256
    1348.00   4.129690     0.1382E+03   0.04910  -0.12275
    1353.00   4.131298     0.1373E+03   0.04622  -0.11555
    1358.00   4.132900     0.1354E+03   0.04024  -0.10059
    1363.00   4.134496     0.1352E+03   0.03968  -0.09920
    1368.00   4.136086     0.1362E+03   0.04284  -0.10709
    1373.00   4.137671     0.1371E+03   0.04561  -0.11404
    1378.00   4.139249     0.1373E+03   0.04621  -0.11553
    1383.00   4.140822     0.1373E+03   0.04632  -0.11580
    1388.00   4.142389     0.1361E+03   0.04239  -0.10597
    1393.00   4.143951     0.1190E+03  -0.01583   0.03956
    1398.00   4.145507     0.1204E+03  -0.01066   0.02664
    1403.00   4.147058     0.1201E+03  -0.01204   0.03010
    1408.00   4.148602     0.1211E+03  -0.00843   0.02108
    1413.00   4.150142     0.1204E+03  -0.01078   0.02695
    1418.00   4.151676     0.1215E+03  -0.00690   0.01725
    1423.00   4.153205     0.1212E+03  -0.00811   0.02027
    1428.00   4.154728     0.1205E+03  -0.01059   0.02648
    1433.00   4.156246     0.1228E+03  -0.00211   0.00527
    1438.00   4.157759     0.1238E+03   0.00110  -0.00275
    1443.00   4.159266     0.1225E+03  -0.00342   0.00855
    1448.00   4.160769     0.1245E+03   0.00376  -0.00941
    1453.00   4.162266     0.1242E+03   0.00267  -0.00666
    1457.00   4.163460     0.1250E+03   0.00551  -0.01376
    1462.00   4.164948     0.1167E+03  -0.02439   0.06099
    1468.00   4.166726     0.1181E+03  -0.01931   0.04827
    1473.00   4.168202     0.1181E+03  -0.01926   0.04814
    1478.00   4.169674     0.1196E+03  -0.01389   0.03473
    1483.00   4.171141     0.1207E+03  -0.00958   0.02395
    1488.00   4.172603     0.1208E+03  -0.00951   0.02379
    1493.00   4.174060     0.1238E+03   0.00112  -0.00281
    1498.00   4.175512     0.1239E+03   0.00149  -0.00372
    1503.00   4.176959     0.1232E+03  -0.00073   0.00182
    1508.00   4.178401     0.1244E+03   0.00321  -0.00803
    1513.00   4.179839     0.1266E+03   0.01083  -0.02706
    1518.00   4.181272     0.1275E+03   0.01423  -0.03557
    1523.00   4.182700     0.1280E+03   0.01580  -0.03949
    1528.00   4.184123     0.1292E+03   0.01972  -0.04930
    1533.00   4.185542     0.1293E+03   0.02027  -0.05066
    1538.00   4.186956     0.1250E+03   0.00546  -0.01366
    1543.00   4.188366     0.1270E+03   0.01241  -0.03103
    1548.00   4.189771     0.1279E+03   0.01532  -0.03829
    1553.00   4.191172     0.1279E+03   0.01529  -0.03822
    1558.00   4.192567     0.1213E+03  -0.00775   0.01939
    1563.00   4.193959     0.1228E+03  -0.00242   0.00605
    1568.00   4.195346     0.1243E+03   0.00303  -0.00758
    1573.00   4.196729     0.1278E+03   0.01514  -0.03785
    1578.00   4.198107     0.1113E+03  -0.04504   0.11260
    1583.00   4.199481     0.1170E+03  -0.02322   0.05805
    1588.00   4.200850     0.1199E+03  -0.01245   0.03112
    1593.00   4.202216     0.1243E+03   0.00316  -0.00791
    1598.00   4.203577     0.1277E+03   0.01474  -0.03686
    1605.00   4.205475     0.1179E+03  -0.02000   0.05001
    1615.00   4.208173     0.1244E+03   0.00322  -0.00804
    1625.00   4.210854     0.1165E+03  -0.02517   0.06293
    1635.00   4.213518     0.1242E+03   0.00271  -0.00677
    1645.00   4.216166     0.1172E+03  -0.02255   0.05638
    1655.00   4.218798     0.1221E+03  -0.00460   0.01151
    1665.00   4.221415     0.1170E+03  -0.02330   0.05826
    1675.00   4.224015     0.1210E+03  -0.00870   0.02176
    1685.00   4.226600     0.1229E+03  -0.00179   0.00449
    1695.00   4.229170     0.1192E+03  -0.01499   0.03747
    1705.00   4.231725     0.1190E+03  -0.01578   0.03946
    1715.00   4.234264     0.1161E+03  -0.02668   0.06671
    1725.00   4.236789     0.1147E+03  -0.03177   0.07941
    1735.00   4.239300     0.1107E+03  -0.04714   0.11785
    1745.00   4.241796     0.1095E+03  -0.05204   0.13010
    1755.00   4.244277     0.1082E+03  -0.05730   0.14325
    1765.00   4.246745     0.1049E+03  -0.07049   0.17622
    1775.00   4.249198     0.1021E+03  -0.08262   0.20655
    1785.00   4.251638     0.1002E+03  -0.09072   0.22679
    1795.00   4.254065     0.9713E+02  -0.10410   0.26026
    1805.00   4.256477     0.9455E+02  -0.11579   0.28948
    1815.00   4.258877     0.9296E+02  -0.12315   0.30789
    1825.00   4.261263     0.9149E+02  -0.13009   0.32522
    1835.00   4.263636     0.9004E+02  -0.13702   0.34255
    1845.00   4.265996     0.8820E+02  -0.14596   0.36491
    1855.00   4.268344     0.8687E+02  -0.15259   0.38149
    1865.00   4.270679     0.8448E+02  -0.16471   0.41177
    1875.00   4.273001     0.8290E+02  -0.17288   0.43219
    1885.00   4.275311     0.8205E+02  -0.17736   0.44341
    1895.00   4.277609     0.7979E+02  -0.18949   0.47373
    1905.00   4.279895     0.7986E+02  -0.18911   0.47278
    1915.00   4.282169     0.7843E+02  -0.19695   0.49239
    1925.00   4.284431     0.7738E+02  -0.20282   0.50704
    1935.00   4.286681     0.7560E+02  -0.21294   0.53234
    1945.00   4.288919     0.7398E+02  -0.22235   0.55587
    1955.00   4.291147     0.7298E+02  -0.22826   0.57064
    1965.00   4.293363     0.7132E+02  -0.23822   0.59555
    1975.00   4.295567     0.6924E+02  -0.25111   0.62778
    1985.00   4.297760     0.6820E+02  -0.25764   0.64411
    1995.00   4.299943     0.6739E+02  -0.26282   0.65704
    2005.00   4.302114     0.6686E+02  -0.26630   0.66574
    2015.00   4.304275     0.6595E+02  -0.27225   0.68062
    2025.00   4.306425     0.6465E+02  -0.28088   0.70220
    2035.00   4.308564     0.6405E+02  -0.28495   0.71239
    2045.00   4.310693     0.6382E+02  -0.28649   0.71621
    2055.00   4.312812     0.6303E+02  -0.29192   0.72979
    2065.00   4.314920     0.6229E+02  -0.29702   0.74256
    2075.00   4.317018     0.6180E+02  -0.30045   0.75112
    2085.00   4.319106     0.6115E+02  -0.30507   0.76267
    2095.00   4.321184     0.6037E+02  -0.31060   0.77650
    2105.00   4.323252     0.6010E+02  -0.31258   0.78146
    2115.00   4.325311     0.5929E+02  -0.31843   0.79608
    2125.00   4.327359     0.5860E+02  -0.32354   0.80885
    2135.00   4.329398     0.5816E+02  -0.32679   0.81697
    2145.00   4.331428     0.5747E+02  -0.33199   0.82999
    2155.00   4.333447     0.5673E+02  -0.33765   0.84412
    2165.00   4.335458     0.5589E+02  -0.34411   0.86028
    2175.00   4.337460     0.5511E+02  -0.35020   0.87551
    2185.00   4.339452     0.5450E+02  -0.35504   0.88760
    2195.00   4.341434     0.5386E+02  -0.36016   0.90040
    2205.00   4.343409     0.5276E+02  -0.36913   0.92282
    2215.00   4.345374     0.5246E+02  -0.37158   0.92895
    2225.00   4.347330     0.5140E+02  -0.38048   0.95120
    2235.00   4.349277     0.5074E+02  -0.38610   0.96525
    2245.00   4.351216     0.5003E+02  -0.39220   0.98051
    2255.00   4.353147     0.4942E+02  -0.39754   0.99384
    2265.00   4.355068     0.4847E+02  -0.40594   1.01486
    2275.00   4.356981     0.4807E+02  -0.40953   1.02383
    2285.00   4.358886     0.4716E+02  -0.41786   1.04465
    2295.00   4.360783     0.3675E+02  -0.52622   1.31556
    2305.00   4.362671     0.4146E+02  -0.47379   1.18446
    2315.00   4.364551     0.4142E+02  -0.47423   1.18557
    2325.00   4.366423     0.3419E+02  -0.55753   1.39382
    2335.00   4.368287     0.3791E+02  -0.51270   1.28175
    2345.00   4.370143     0.3387E+02  -0.56162   1.40405
    2355.00   4.371991     0.3167E+02  -0.59083   1.47708
    2365.00   4.373831     0.3466E+02  -0.55164   1.37911
    2375.00   4.375664     0.3174E+02  -0.58978   1.47446
    2385.00   4.377488     0.2969E+02  -0.61881   1.54703
    2395.00   4.379306     0.3191E+02  -0.58753   1.46882
    2405.00   4.381115     0.3007E+02  -0.61334   1.53336
    2415.00   4.382917     0.2759E+02  -0.65074   1.62684
    2425.00   4.384712     0.2934E+02  -0.62403   1.56008
    2435.00   4.386499     0.2735E+02  -0.65455   1.63638
    2445.00   4.388279     0.2754E+02  -0.65144   1.62861
    2455.00   4.390052     0.2612E+02  -0.67452   1.68631
    2465.00   4.391817     0.2563E+02  -0.68270   1.70675
    2475.00   4.393575     0.2472E+02  -0.69840   1.74599
    2485.00   4.395327     0.2076E+02  -0.77422   1.93556
    2495.00   4.397071     0.1918E+02  -0.80866   2.02165
    2505.00   4.398808     0.1947E+02  -0.80216   2.00539
    2515.00   4.400538     0.1861E+02  -0.82178   2.05444
    2525.00   4.402262     0.1905E+02  -0.81156   2.02891
    2535.00   4.403978     0.1909E+02  -0.81069   2.02671
    2545.00   4.405688     0.1893E+02  -0.81428   2.03570
    2555.00   4.407391     0.1901E+02  -0.81246   2.03115
    2565.00   4.409087     0.1931E+02  -0.80577   2.01442
    2575.00   4.410777     0.1962E+02  -0.79877   1.99692
    2585.00   4.412460     0.1936E+02  -0.80458   2.01144
    2595.00   4.414137     0.1943E+02  -0.80291   2.00729
    2605.00   4.415808     0.1946E+02  -0.80224   2.00561
    2615.00   4.417472     0.1919E+02  -0.80835   2.02087
    2625.00   4.419129     0.1895E+02  -0.81394   2.03486
    2635.00   4.420781     0.1893E+02  -0.81427   2.03568
    2645.00   4.422426     0.1877E+02  -0.81803   2.04507
    2655.00   4.424065     0.1857E+02  -0.82267   2.05668
    2665.00   4.425697     0.1830E+02  -0.82890   2.07226
    2675.00   4.427324     0.1846E+02  -0.82513   2.06282
    2685.00   4.428945     0.1827E+02  -0.82965   2.07412
    2695.00   4.430559     0.1796E+02  -0.83720   2.09300
    2705.00   4.432167     0.1795E+02  -0.83748   2.09370
    2715.00   4.433770     0.1779E+02  -0.84119   2.10297
    2725.00   4.435367     0.1769E+02  -0.84375   2.10938
    2735.00   4.436957     0.1741E+02  -0.85060   2.12650
    2745.00   4.438542     0.1737E+02  -0.85157   2.12892
    2755.00   4.440122     0.1727E+02  -0.85403   2.13508
    2765.00   4.441695     0.1706E+02  -0.85937   2.14843
    2775.00   4.443263     0.1684E+02  -0.86518   2.16295
    2785.00   4.444825     0.1678E+02  -0.86675   2.16687
    2795.00   4.446382     0.1670E+02  -0.86875   2.17188
    2805.00   4.447933     0.1653E+02  -0.87312   2.18279
    2815.00   4.449478     0.1633E+02  -0.87851   2.19626
    2825.00   4.451018     0.1622E+02  -0.88141   2.20352
    2835.00   4.452553     0.1613E+02  -0.88373   2.20932
    2845.00   4.454082     0.1595E+02  -0.88858   2.22146
    2855.00   4.455606     0.1581E+02  -0.89264   2.23161
    2865.00   4.457125     0.1567E+02  -0.89626   2.24065
    2875.00   4.458638     0.1555E+02  -0.89983   2.24958
    2885.00   4.460146     0.1540E+02  -0.90385   2.25963
    2895.00   4.461648     0.1527E+02  -0.90768   2.26919
    2905.00   4.463146     0.1512E+02  -0.91192   2.27979
    2915.00   4.464639     0.1500E+02  -0.91541   2.28852
    2925.00   4.466126     0.1477E+02  -0.92197   2.30492
    2935.00   4.467608     0.1472E+02  -0.92345   2.30862
    2945.00   4.469085     0.1457E+02  -0.92809   2.32023
    2955.00   4.470557     0.1444E+02  -0.93197   2.32992
    2965.00   4.472025     0.1433E+02  -0.93508   2.33770
    2975.00   4.473487     0.1421E+02  -0.93900   2.34750
    2985.00   4.474944     0.1405E+02  -0.94385   2.35962
    2995.00   4.476397     0.1391E+02  -0.94818   2.37045
    3005.00   4.477844     0.1381E+02  -0.95112   2.37781
    3015.00   4.479287     0.1378E+02  -0.95232   2.38080
    3025.00   4.480725     0.1368E+02  -0.95525   2.38813
    3035.00   4.482159     0.1360E+02  -0.95777   2.39443
    3045.00   4.483587     0.1357E+02  -0.95876   2.39691
    3055.00   4.485011     0.1349E+02  -0.96129   2.40323
    3065.00   4.486430     0.1343E+02  -0.96349   2.40872
    3075.00   4.487845     0.1339E+02  -0.96469   2.41171
    3085.00   4.489255     0.1330E+02  -0.96754   2.41885
    3095.00   4.490661     0.1328E+02  -0.96835   2.42087
    3105.00   4.492062     0.1324E+02  -0.96949   2.42372
    3115.00   4.493458     0.1311E+02  -0.97370   2.43424
    3125.00   4.494850     0.1309E+02  -0.97460   2.43650
    3135.00   4.496238     0.1302E+02  -0.97686   2.44216
    3145.00   4.497621     0.1294E+02  -0.97942   2.44855
    3155.00   4.499000     0.1286E+02  -0.98234   2.45586
    3165.00   4.500374     0.1276E+02  -0.98547   2.46367
    3175.00   4.501744     0.1272E+02  -0.98695   2.46737
    3185.00   4.503109     0.1266E+02  -0.98891   2.47229
    3195.00   4.504471     0.1262E+02  -0.99034   2.47585
    3210.00   4.506505     0.1252E+02  -0.99399   2.48498
    3230.00   4.509202     0.1237E+02  -0.99915   2.49788
    3250.00   4.511883     0.1224E+02  -1.00368   2.50920
    3270.00   4.514548     0.1208E+02  -1.00946   2.52364
    3290.00   4.517196     0.1189E+02  -1.01618   2.54045
    3310.00   4.519828     0.1176E+02  -1.02102   2.55254
    3330.00   4.522444     0.1158E+02  -1.02763   2.56907
    3350.00   4.525045     0.1143E+02  -1.03342   2.58355
    3370.00   4.527630     0.1125E+02  -1.04033   2.60082
    3390.00   4.530200     0.1105E+02  -1.04794   2.61985
    3410.00   4.532754     0.1086E+02  -1.05570   2.63925
    3430.00   4.535294     0.1070E+02  -1.06226   2.65566
    3450.00   4.537819     0.1051E+02  -1.06987   2.67468
    3470.00   4.540329     0.1032E+02  -1.07782   2.69455
    3490.00   4.542826     0.1014E+02  -1.08524   2.71311
    3510.00   4.545307     0.9970E+01  -1.09275   2.73187
    3530.00   4.547775     0.9780E+01  -1.10110   2.75275
    3550.00   4.550228     0.9614E+01  -1.10852   2.77130
    3570.00   4.552669     0.9437E+01  -1.11661   2.79153
    3590.00   4.555095     0.9270E+01  -1.12435   2.81087
    3610.00   4.557508     0.9113E+01  -1.13178   2.82945
    3630.00   4.559907     0.8943E+01  -1.13998   2.84996
    3650.00   4.562293     0.8767E+01  -1.14860   2.87149
    3670.00   4.564666     0.8605E+01  -1.15668   2.89170
    3690.00   4.567026     0.8429E+01  -1.16568   2.91421
    3710.00   4.569374     0.8266E+01  -1.17413   2.93533
    3730.00   4.571709     0.8135E+01  -1.18110   2.95275
    3750.00   4.574031     0.7961E+01  -1.19046   2.97616
    3770.00   4.576342     0.7839E+01  -1.19717   2.99293
    3790.00   4.578639     0.7686E+01  -1.20576   3.01441
    3810.00   4.580925     0.7548E+01  -1.21363   3.03407
    3830.00   4.583199     0.7418E+01  -1.22115   3.05288
    3850.00   4.585461     0.7283E+01  -1.22914   3.07285
    3870.00   4.587711     0.7130E+01  -1.23834   3.09584
    3890.00   4.589950     0.7004E+01  -1.24611   3.11529
    3910.00   4.592176     0.6879E+01  -1.25393   3.13483
    3930.00   4.594393     0.6751E+01  -1.26211   3.15527
    3950.00   4.596597     0.6607E+01  -1.27144   3.17861
    3970.00   4.598790     0.6490E+01  -1.27922   3.19806
    3990.00   4.600973     0.6350E+01  -1.28870   3.22176
    4010.00   4.603145     0.6246E+01  -1.29584   3.23960
    4030.00   4.605305     0.6139E+01  -1.30332   3.25829
    4050.00   4.607455     0.6018E+01  -1.31200   3.28001
    4070.00   4.609594     0.5911E+01  -1.31982   3.29955
    4090.00   4.611723     0.5802E+01  -1.32783   3.31958
    4110.00   4.613842     0.5706E+01  -1.33514   3.33786
    4130.00   4.615950     0.5614E+01  -1.34220   3.35550
    4150.00   4.618048     0.5515E+01  -1.34989   3.37472
    4170.00   4.620136     0.5424E+01  -1.35716   3.39291
    4190.00   4.622214     0.5328E+01  -1.36484   3.41210
    4210.00   4.624282     0.5234E+01  -1.37258   3.43144
    4230.00   4.626340     0.5164E+01  -1.37845   3.44614
    4250.00   4.628389     0.5071E+01  -1.38637   3.46592
    4270.00   4.630428     0.4994E+01  -1.39298   3.48246
    4290.00   4.632457     0.4811E+01  -1.40922   3.52306
    4310.00   4.634478     0.4616E+01  -1.42716   3.56790
    4330.00   4.636488     0.4582E+01  -1.43035   3.57588
    4350.00   4.638489     0.4430E+01  -1.44501   3.61253
    4370.00   4.640481     0.4327E+01  -1.45525   3.63811
    4390.00   4.642465     0.4245E+01  -1.46356   3.65890
    4410.00   4.644439     0.4121E+01  -1.47640   3.69099
    4430.00   4.646404     0.4058E+01  -1.48316   3.70791
    4450.00   4.648360     0.3989E+01  -1.49053   3.72632
    4470.00   4.650308     0.3885E+01  -1.50208   3.75521
    4490.00   4.652246     0.3855E+01  -1.50541   3.76353
    4510.00   4.654177     0.3774E+01  -1.51459   3.78647
    4530.00   4.656098     0.3696E+01  -1.52366   3.80914
    4550.00   4.658011     0.3661E+01  -1.52779   3.81947
    4570.00   4.659916     0.3613E+01  -1.53362   3.83406
    4590.00   4.661813     0.3526E+01  -1.54418   3.86044
    4610.00   4.663701     0.3506E+01  -1.54666   3.86665
    4630.00   4.665581     0.3444E+01  -1.55434   3.88585
    4650.00   4.667453     0.3404E+01  -1.55950   3.89876
    4670.00   4.669317     0.3371E+01  -1.56369   3.90922
    4690.00   4.671173     0.3312E+01  -1.57132   3.92829
    4710.00   4.673021     0.3260E+01  -1.57823   3.94557
    4730.00   4.674861     0.3243E+01  -1.58056   3.95140
    4750.00   4.676694     0.3180E+01  -1.58896   3.97240
    4770.00   4.678518     0.3138E+01  -1.59484   3.98711
    4790.00   4.680336     0.3103E+01  -1.59963   3.99908
    4810.00   4.682145     0.3040E+01  -1.60860   4.02151
    4830.00   4.683947     0.3027E+01  -1.61044   4.02609
    4850.00   4.685741     0.2977E+01  -1.61765   4.04414
    4870.00   4.687529     0.2926E+01  -1.62510   4.06275
    4890.00   4.689309     0.2886E+01  -1.63116   4.07790
    4910.00   4.691082     0.2850E+01  -1.63666   4.09166
    4930.00   4.692847     0.2807E+01  -1.64317   4.10793
    4950.00   4.694605     0.2763E+01  -1.65002   4.12505
    4970.00   4.696356     0.2737E+01  -1.65420   4.13551
    4990.00   4.698101     0.2699E+01  -1.66027   4.15068
    5010.00   4.699838     0.2663E+01  -1.66608   4.16521
    5030.00   4.701568     0.2627E+01  -1.67194   4.17984
    5050.00   4.703291     0.2581E+01  -1.67964   4.19911
    5070.00   4.705008     0.2555E+01  -1.68405   4.21012
    5090.00   4.706717     0.2521E+01  -1.68988   4.22471
    5110.00   4.708421     0.2482E+01  -1.69673   4.24182
    5130.00   4.710117     0.2459E+01  -1.70073   4.25182
    5150.00   4.711807     0.2419E+01  -1.70778   4.26945
    5170.00   4.713490     0.2399E+01  -1.71135   4.27837
    5190.00   4.715167     0.2361E+01  -1.71832   4.29580
    5210.00   4.716838     0.2334E+01  -1.72333   4.30834
    5230.00   4.718502     0.2297E+01  -1.73023   4.32558
    5250.00   4.720160     0.2274E+01  -1.73459   4.33648
    5270.00   4.721810     0.2255E+01  -1.73825   4.34563
    5290.00   4.723455     0.2214E+01  -1.74634   4.36585
    5310.00   4.725095     0.2185E+01  -1.75199   4.37997
    5330.00   4.726727     0.2163E+01  -1.75649   4.39121
    5350.00   4.728354     0.2136E+01  -1.76188   4.40471
    5370.00   4.729974     0.2111E+01  -1.76699   4.41748
    5390.00   4.731589     0.2086E+01  -1.77219   4.43047
    5410.00   4.733197     0.2060E+01  -1.77749   4.44372
    5430.00   4.734800     0.2028E+01  -1.78448   4.46121
    5450.00   4.736397     0.2011E+01  -1.78793   4.46983
    5470.00   4.737988     0.1981E+01  -1.79446   4.48614
    5490.00   4.739573     0.1959E+01  -1.79931   4.49826
    5510.00   4.741152     0.1934E+01  -1.80496   4.51239
    5530.00   4.742725     0.1926E+01  -1.80675   4.51687
    5550.00   4.744293     0.1886E+01  -1.81580   4.53950
    5570.00   4.745855     0.1874E+01  -1.81862   4.54654
    5590.00   4.747412     0.1846E+01  -1.82511   4.56279
    5610.00   4.748963     0.1829E+01  -1.82923   4.57307
    5630.00   4.750508     0.1800E+01  -1.83610   4.59024
    5650.00   4.752048     0.1786E+01  -1.83963   4.59908
    5670.00   4.753583     0.1764E+01  -1.84486   4.61214
    5690.00   4.755112     0.1737E+01  -1.85161   4.62902
    5710.00   4.756636     0.1724E+01  -1.85481   4.63703
    5730.00   4.758155     0.1703E+01  -1.86026   4.65064
    5750.00   4.759668     0.1683E+01  -1.86543   4.66358
    5770.00   4.761176     0.1661E+01  -1.87099   4.67748
    5790.00   4.762679     0.1646E+01  -1.87496   4.68740
    5810.00   4.764176     0.1623E+01  -1.88113   4.70282
    5830.00   4.765669     0.1605E+01  -1.88596   4.71491
    5850.00   4.767156     0.1587E+01  -1.89095   4.72737
    5870.00   4.768638     0.1564E+01  -1.89707   4.74268
    5890.00   4.770115     0.1547E+01  -1.90188   4.75469
    5910.00   4.771587     0.1530E+01  -1.90664   4.76660
    5930.00   4.773055     0.1513E+01  -1.91148   4.77869
    5950.00   4.774517     0.1494E+01  -1.91721   4.79303
    5970.00   4.775974     0.1479E+01  -1.92146   4.80365
    5990.00   4.777427     0.1462E+01  -1.92654   4.81635
    6010.00   4.778874     0.1445E+01  -1.93162   4.82906
    6030.00   4.780317     0.1428E+01  -1.93675   4.84188
    6050.00   4.781755     0.1409E+01  -1.94251   4.85627
    6070.00   4.783189     0.1393E+01  -1.94742   4.86856
    6090.00   4.784617     0.1377E+01  -1.95253   4.88132
    6110.00   4.786041     0.1360E+01  -1.95787   4.89469
    6130.00   4.787460     0.1346E+01  -1.96234   4.90585
    6150.00   4.788875     0.1331E+01  -1.96712   4.91779
    6170.00   4.790285     0.1317E+01  -1.97172   4.92931
    6190.00   4.791691     0.1302E+01  -1.97684   4.94209
    6210.00   4.793092     0.1288E+01  -1.98152   4.95380
    6230.00   4.794488     0.1272E+01  -1.98701   4.96752
    6250.00   4.795880     0.1256E+01  -1.99244   4.98110
    6270.00   4.797267     0.1242E+01  -1.99741   4.99352
    6290.00   4.798651     0.1229E+01  -2.00203   5.00508
    6310.00   4.800029     0.1214E+01  -2.00719   5.01799
    6330.00   4.801404     0.1203E+01  -2.01134   5.02834
    6350.00   4.802773     0.1188E+01  -2.01666   5.04165
    6370.00   4.804139     0.1176E+01  -2.02091   5.05228
    6390.00   4.805501     0.1161E+01  -2.02649   5.06623
    6420.00   4.807535     0.1143E+01  -2.03354   5.08384
    6460.00   4.810232     0.1117E+01  -2.04350   5.10875
    6500.00   4.812913     0.1092E+01  -2.05313   5.13283
    6540.00   4.815578     0.1068E+01  -2.06278   5.15694
    6580.00   4.818226     0.1045E+01  -2.07215   5.18039
    6620.00   4.820858     0.1022E+01  -2.08189   5.20472
    6660.00   4.823474     0.1000E+01  -2.09133   5.22833
    6700.00   4.826075     0.9788E+00  -2.10076   5.25190
    6740.00   4.828660     0.9573E+00  -2.11038   5.27596
    6780.00   4.831230     0.9369E+00  -2.11973   5.29934
    6820.00   4.833784     0.9168E+00  -2.12917   5.32294
    6860.00   4.836324     0.8977E+00  -2.13831   5.34579
    6900.00   4.838849     0.8786E+00  -2.14768   5.36920
    6940.00   4.841359     0.8601E+00  -2.15689   5.39221
    6980.00   4.843855     0.8422E+00  -2.16604   5.41510
    7020.00   4.846337     0.8243E+00  -2.17534   5.43835
    7060.00   4.848804     0.8075E+00  -2.18431   5.46077
    7100.00   4.851258     0.7908E+00  -2.19340   5.48351
    7140.00   4.853698     0.7746E+00  -2.20237   5.50592
    7180.00   4.856124     0.7586E+00  -2.21141   5.52851
    7220.00   4.858537     0.7433E+00  -2.22030   5.55075
    7260.00   4.860937     0.7281E+00  -2.22925   5.57313
    7300.00   4.863323     0.7135E+00  -2.23807   5.59516
    7340.00   4.865696     0.6990E+00  -2.24698   5.61745
    7380.00   4.868056     0.6851E+00  -2.25567   5.63918
    7420.00   4.870404     0.6710E+00  -2.26470   5.66175
    7460.00   4.872739     0.6578E+00  -2.27337   5.68341
    7500.00   4.875061     0.6449E+00  -2.28194   5.70484
    7540.00   4.877371     0.6321E+00  -2.29065   5.72662
    7580.00   4.879669     0.6202E+00  -2.29894   5.74736
    7620.00   4.881955     0.6081E+00  -2.30747   5.76868
    7660.00   4.884229     0.5963E+00  -2.31596   5.78990
    7700.00   4.886491     0.5847E+00  -2.32448   5.81119
    7740.00   4.888741     0.5736E+00  -2.33283   5.83208
    7780.00   4.890980     0.5627E+00  -2.34118   5.85296
    7820.00   4.893207     0.5520E+00  -2.34953   5.87383
    7860.00   4.895422     0.5415E+00  -2.35781   5.89454
    7900.00   4.897627     0.5313E+00  -2.36608   5.91521
    7940.00   4.899820     0.5214E+00  -2.37429   5.93574
    7980.00   4.902003     0.5117E+00  -2.38245   5.95611
    8020.00   4.904174     0.5020E+00  -2.39076   5.97690
    8060.00   4.906335     0.4927E+00  -2.39883   5.99708
    8100.00   4.908485     0.4838E+00  -2.40681   6.01703
    8140.00   4.910625     0.4748E+00  -2.41490   6.03726
    8180.00   4.912753     0.4663E+00  -2.42280   6.05701
    8220.00   4.914872     0.4578E+00  -2.43075   6.07688
    8260.00   4.916980     0.4495E+00  -2.43870   6.09675
    8300.00   4.919078     0.4414E+00  -2.44658   6.11645
    8340.00   4.921166     0.4334E+00  -2.45455   6.13636
    8380.00   4.923244     0.4257E+00  -2.46238   6.15595
    8420.00   4.925312     0.4182E+00  -2.47005   6.17512
    8460.00   4.927370     0.4108E+00  -2.47784   6.19460
    8500.00   4.929419     0.4036E+00  -2.48554   6.21385
    8540.00   4.931458     0.3965E+00  -2.49319   6.23298
    8580.00   4.933487     0.3896E+00  -2.50081   6.25201
    8620.00   4.935507     0.3829E+00  -2.50841   6.27103
    8660.00   4.937518     0.3763E+00  -2.51596   6.28990
    8700.00   4.939519     0.3698E+00  -2.52353   6.30881
    8740.00   4.941511     0.3634E+00  -2.53102   6.32756
    8780.00   4.943495     0.3572E+00  -2.53853   6.34632
    8820.00   4.945469     0.3511E+00  -2.54604   6.36511
    8860.00   4.947433     0.3451E+00  -2.55344   6.38360
    8900.00   4.949390     0.3393E+00  -2.56086   6.40216
    8940.00   4.951338     0.3337E+00  -2.56815   6.42037
    8980.00   4.953277     0.3280E+00  -2.57563   6.43907
    9020.00   4.955207     0.3226E+00  -2.58277   6.45692
    9060.00   4.957129     0.3173E+00  -2.59000   6.47499
    9100.00   4.959042     0.3119E+00  -2.59747   6.49368
    9140.00   4.960946     0.3068E+00  -2.60452   6.51131
    9180.00   4.962843     0.3018E+00  -2.61170   6.52926
    9220.00   4.964731     0.2970E+00  -2.61874   6.54685
    9260.00   4.966611     0.2921E+00  -2.62587   6.56468
    9300.00   4.968483     0.2874E+00  -2.63294   6.58235
    9340.00   4.970347     0.2828E+00  -2.64003   6.60007
    9380.00   4.972203     0.2782E+00  -2.64703   6.61758
    9420.00   4.974051     0.2738E+00  -2.65403   6.63508
    9460.00   4.975891     0.2694E+00  -2.66105   6.65262
    9500.00   4.977724     0.2651E+00  -2.66798   6.66995
    9540.00   4.979548     0.2609E+00  -2.67489   6.68723
    9580.00   4.981365     0.2569E+00  -2.68176   6.70439
    9620.00   4.983175     0.2528E+00  -2.68865   6.72162
    9660.00   4.984977     0.2489E+00  -2.69547   6.73867
    9700.00   4.986772     0.2450E+00  -2.70226   6.75566
    9740.00   4.988559     0.2411E+00  -2.70926   6.77316
    9780.00   4.990339     0.2374E+00  -2.71588   6.78969
    9820.00   4.992111     0.2338E+00  -2.72255   6.80638
    9860.00   4.993877     0.2302E+00  -2.72926   6.82314
    9900.00   4.995635     0.2267E+00  -2.73592   6.83980
    9940.00   4.997386     0.2233E+00  -2.74261   6.85652
    9980.00   4.999130     0.2199E+00  -2.74922   6.87306
   10020.00   5.000868     0.2166E+00  -2.75582   6.88956
   20000.00   5.301030     0.1503E-01  -3.91453   9.78633
   40000.00   5.602060     0.9828E-03  -5.09898  12.74746
   60000.00   5.778151     0.1968E-03  -5.79751  14.49379
   80000.00   5.903090     0.6262E-04  -6.29472  15.73681
  100000.00   6.000000     0.2573E-04  -6.68107  16.70267
  120000.00   6.079181     0.1243E-04  -6.99707  17.49268
  140000.00   6.146128     0.6714E-05  -7.26447  18.16118
  160000.00   6.204120     0.3937E-05  -7.49623  18.74056
