age =   11.0    [Fe/H] =   -0.25

wavele(nm) log wave(A)   Hlam       log(Hlam/Hlam(V))  Hlam(mag(V)) 
      89.50   2.951823     0.5484E-13 -15.52916  38.82290
      90.50   2.956649     0.1565E-12 -15.07379  37.68448
      91.50   2.961421     0.2457E-12 -14.87781  37.19453
      92.50   2.966142     0.9150E-10 -12.30686  30.76716
      93.50   2.970812     0.1264E-09 -12.16648  30.41620
      94.50   2.975432     0.1798E-09 -12.01340  30.03349
      95.50   2.980003     0.2676E-09 -11.84078  29.60194
      96.50   2.984527     0.3827E-09 -11.68542  29.21356
      97.50   2.989005     0.5026E-09 -11.56701  28.91752
      98.50   2.993436     0.7050E-09 -11.42007  28.55017
      99.50   2.997823     0.9491E-09 -11.29095  28.22738
     100.50   3.002166     0.1381E-08 -11.12819  27.82046
     101.50   3.006466     0.1847E-08 -11.00180  27.50449
     102.50   3.010724     0.2092E-08 -10.94775  27.36938
     103.50   3.014940     0.3385E-08 -10.73868  26.84669
     104.50   3.019116     0.4609E-08 -10.60463  26.51158
     105.50   3.023252     0.5859E-08 -10.50042  26.25105
     106.50   3.027350     0.7761E-08 -10.37837  25.94593
     107.50   3.031409     0.1036E-07 -10.25294  25.63235
     108.50   3.035430     0.1379E-07 -10.12870  25.32176
     109.50   3.039414     0.1725E-07 -10.03146  25.07865
     110.50   3.043362     0.1183E-06  -9.19543  22.98856
     111.50   3.047275     0.2224E-06  -8.92119  22.30297
     112.50   3.051152     0.3391E-06  -8.73798  21.84496
     113.50   3.054996     0.5132E-06  -8.55802  21.39506
     114.50   3.058805     0.6779E-06  -8.43708  21.09271
     115.50   3.062582     0.7730E-06  -8.38007  20.95018
     116.50   3.066326     0.1025E-05  -8.25764  20.64411
     117.50   3.070038     0.1293E-05  -8.15679  20.39199
     118.50   3.073718     0.1323E-05  -8.14655  20.36638
     119.50   3.077368     0.9546E-06  -8.28845  20.72113
     120.50   3.080987     0.8711E-06  -8.32822  20.82056
     121.50   3.084576     0.1663E-06  -9.04744  22.61859
     122.50   3.088136     0.1140E-05  -8.21133  20.52832
     123.50   3.091667     0.2924E-05  -7.80228  19.50570
     124.50   3.095169     0.4971E-05  -7.57187  18.92968
     125.50   3.098644     0.6692E-05  -7.44270  18.60675
     126.50   3.102091     0.7383E-05  -7.40005  18.50013
     127.50   3.105510     0.9639E-05  -7.28426  18.21066
     128.50   3.108903     0.1184E-04  -7.19508  17.98771
     129.50   3.112270     0.1434E-04  -7.11160  17.77900
     130.50   3.115611     0.1539E-04  -7.08094  17.70235
     131.50   3.118926     0.1961E-04  -6.97590  17.43975
     132.50   3.122216     0.2129E-04  -6.94011  17.35027
     133.50   3.125481     0.2376E-04  -6.89242  17.23106
     134.50   3.128722     0.2802E-04  -6.82077  17.05191
     135.50   3.131939     0.3195E-04  -6.76376  16.90939
     136.50   3.135133     0.3491E-04  -6.72529  16.81322
     137.50   3.138303     0.3752E-04  -6.69405  16.73513
     138.50   3.141450     0.4097E-04  -6.65577  16.63942
     139.50   3.144574     0.4631E-04  -6.60260  16.50649
     140.50   3.147676     0.5492E-04  -6.52853  16.32133
     141.50   3.150756     0.6200E-04  -6.47585  16.18962
     142.50   3.153815     0.6987E-04  -6.42396  16.05989
     143.50   3.156852     0.8120E-04  -6.35871  15.89678
     144.20   3.158965     0.1049E-03  -6.24761  15.61901
     144.70   3.160469     0.9429E-04  -6.29379  15.73446
     145.50   3.162863     0.1112E-03  -6.22213  15.55532
     146.50   3.165838     0.1367E-03  -6.13245  15.33112
     147.50   3.168792     0.1544E-03  -6.07974  15.19935
     148.50   3.171726     0.1666E-03  -6.04663  15.11657
     149.50   3.174641     0.2166E-03  -5.93271  14.83177
     150.50   3.177536     0.2598E-03  -5.85366  14.63416
     151.20   3.179552     0.2034E-03  -5.95995  14.89986
     151.70   3.180986     0.2526E-03  -5.86593  14.66482
     152.50   3.183270     0.5151E-03  -5.55636  13.89089
     153.50   3.186108     0.7781E-03  -5.37726  13.44314
     154.50   3.188928     0.6696E-03  -5.44245  13.60613
     155.50   3.191730     0.1005E-02  -5.26630  13.16576
     156.50   3.194514     0.9554E-03  -5.28808  13.22019
     157.50   3.197281     0.1607E-02  -5.06238  12.65596
     158.50   3.200029     0.1925E-02  -4.98380  12.45950
     159.50   3.202761     0.2231E-02  -4.91978  12.29946
     160.50   3.205475     0.2377E-02  -4.89226  12.23065
     161.50   3.208173     0.2666E-02  -4.84245  12.10612
     162.50   3.210853     0.2906E-02  -4.80495  12.01237
     163.50   3.213518     0.3434E-02  -4.73251  11.83126
     164.50   3.216166     0.4681E-02  -4.59793  11.49483
     165.50   3.218798     0.3063E-02  -4.78212  11.95529
     166.50   3.221414     0.5334E-02  -4.54118  11.35296
     167.20   3.223236     0.3873E-02  -4.68021  11.70053
     167.70   3.224533     0.1495E-01  -4.09368  10.23421
     168.50   3.226600     0.1560E-01  -4.07512  10.18780
     169.50   3.229170     0.1788E-01  -4.01580  10.03950
     170.50   3.231725     0.2091E-01  -3.94785   9.86962
     171.50   3.234264     0.2701E-01  -3.83682   9.59204
     172.50   3.236789     0.3322E-01  -3.74683   9.36708
     173.50   3.239300     0.4375E-01  -3.62726   9.06814
     174.50   3.241796     0.5462E-01  -3.53090   8.82724
     175.50   3.244277     0.8070E-01  -3.36138   8.40344
     176.50   3.246745     0.6323E-01  -3.46736   8.66840
     177.50   3.249198     0.7793E-01  -3.37656   8.44139
     178.50   3.251638     0.1026E+00  -3.25699   8.14247
     179.50   3.254065     0.1460E+00  -3.10404   7.76010
     180.50   3.256477     0.1452E+00  -3.10626   7.76564
     181.50   3.258877     0.1242E+00  -3.17425   7.93562
     182.50   3.261263     0.1546E+00  -3.07912   7.69779
     183.50   3.263636     0.1590E+00  -3.06678   7.66694
     184.50   3.265996     0.9392E-01  -3.29551   8.23876
     185.50   3.268344     0.1825E+00  -3.00700   7.51750
     186.50   3.270679     0.2410E+00  -2.88629   7.21572
     187.50   3.273001     0.2457E+00  -2.87796   7.19489
     188.50   3.275311     0.2611E+00  -2.85147   7.12867
     189.50   3.277609     0.3489E+00  -2.72558   6.81395
     190.50   3.279895     0.3269E+00  -2.75391   6.88476
     191.50   3.282169     0.3700E+00  -2.70007   6.75018
     192.50   3.284431     0.3116E+00  -2.77470   6.93676
     193.50   3.286681     0.1624E+00  -3.05773   7.64432
     194.50   3.288920     0.4514E+00  -2.61367   6.53419
     195.50   3.291147     0.4740E+00  -2.59248   6.48121
     196.70   3.293804     0.6331E+00  -2.46679   6.16699
     197.60   3.295787     0.5349E+00  -2.54000   6.34999
     198.40   3.297542     0.6892E+00  -2.42990   6.07475
     199.50   3.299943     0.7520E+00  -2.39206   5.98016
     200.50   3.302114     0.6882E+00  -2.43058   6.07646
     201.50   3.304275     0.7555E+00  -2.39005   5.97513
     202.50   3.306425     0.5435E+00  -2.53310   6.33275
     203.50   3.308564     0.8527E+00  -2.33747   5.84366
     204.50   3.310693     0.1001E+01  -2.26796   5.66989
     205.50   3.312812     0.9599E+00  -2.28606   5.71515
     206.50   3.314920     0.9205E+00  -2.30425   5.76062
     207.40   3.316809     0.1053E+01  -2.24580   5.61450
     207.80   3.317646     0.2707E+01  -1.83576   4.58941
     208.50   3.319106     0.3514E+01  -1.72243   4.30607
     209.50   3.321184     0.3167E+01  -1.76761   4.41903
     210.50   3.323252     0.3004E+01  -1.79052   4.47629
     211.50   3.325310     0.3579E+01  -1.71448   4.28619
     212.50   3.327359     0.2997E+01  -1.79155   4.47887
     213.50   3.329398     0.2887E+01  -1.80790   4.51975
     214.50   3.331427     0.3940E+01  -1.67281   4.18203
     215.50   3.333447     0.3823E+01  -1.68592   4.21479
     216.50   3.335458     0.3152E+01  -1.76967   4.42417
     217.50   3.337459     0.3208E+01  -1.76199   4.40496
     218.50   3.339452     0.4457E+01  -1.61920   4.04800
     219.50   3.341434     0.4337E+01  -1.63106   4.07764
     220.50   3.343409     0.4204E+01  -1.64459   4.11148
     221.50   3.345374     0.3032E+01  -1.78658   4.46644
     222.50   3.347330     0.3860E+01  -1.68171   4.20429
     223.50   3.349277     0.5431E+01  -1.53343   3.83357
     224.50   3.351216     0.5127E+01  -1.55844   3.89611
     225.50   3.353147     0.3606E+01  -1.71119   4.27798
     226.50   3.355068     0.3193E+01  -1.76414   4.41035
     227.50   3.356982     0.3509E+01  -1.72314   4.30786
     228.50   3.358886     0.5303E+01  -1.54373   3.85933
     229.50   3.360783     0.4161E+01  -1.64905   4.12261
     230.50   3.362671     0.5414E+01  -1.53477   3.83693
     231.50   3.364551     0.4423E+01  -1.62256   4.05641
     232.50   3.366423     0.3595E+01  -1.71259   4.28148
     233.50   3.368287     0.2930E+01  -1.80148   4.50370
     234.50   3.370143     0.1730E+01  -2.03025   5.07562
     235.50   3.371991     0.4114E+01  -1.65401   4.13503
     236.50   3.373831     0.2024E+01  -1.96215   4.90538
     237.50   3.375664     0.2907E+01  -1.80476   4.51191
     238.50   3.377488     0.1440E+01  -2.10981   5.27454
     239.50   3.379306     0.1973E+01  -1.97308   4.93269
     240.50   3.381115     0.2010E+01  -1.96504   4.91260
     241.50   3.382917     0.2559E+01  -1.86018   4.65045
     242.50   3.384712     0.5180E+01  -1.55395   3.88487
     243.50   3.386499     0.5214E+01  -1.55113   3.87783
     244.50   3.388279     0.6464E+01  -1.45778   3.64444
     245.50   3.390052     0.6957E+01  -1.42584   3.56459
     246.50   3.391817     0.5754E+01  -1.50834   3.77084
     247.50   3.393575     0.4875E+01  -1.58031   3.95077
     248.50   3.395326     0.2300E+01  -1.90664   4.76660
     249.50   3.397071     0.3344E+01  -1.74404   4.36010
     250.50   3.398808     0.5796E+01  -1.50511   3.76279
     251.30   3.400192     0.1944E+01  -1.97960   4.94900
     251.80   3.401056     0.1287E+01  -2.15881   5.39703
     252.50   3.402261     0.1604E+01  -2.06297   5.15743
     253.50   3.403978     0.3553E+01  -1.71771   4.29427
     254.50   3.405688     0.3818E+01  -1.68643   4.21609
     255.50   3.407391     0.7954E+01  -1.36767   3.41917
     256.50   3.409087     0.5555E+01  -1.52360   3.80899
     257.50   3.410777     0.7505E+01  -1.39294   3.48236
     258.50   3.412461     0.6440E+01  -1.45937   3.64843
     259.50   3.414137     0.5626E+01  -1.51804   3.79511
     260.50   3.415808     0.4646E+01  -1.60123   4.00309
     261.50   3.417472     0.4064E+01  -1.65932   4.14829
     262.50   3.419129     0.6031E+01  -1.48792   3.71980
     263.50   3.420781     0.1171E+02  -1.19953   2.99883
     264.50   3.422426     0.1621E+02  -1.05861   2.64653
     265.50   3.424065     0.2312E+02  -0.90423   2.26059
     266.50   3.425697     0.1442E+02  -1.10929   2.77323
     267.50   3.427324     0.1650E+02  -1.05073   2.62683
     268.50   3.428944     0.1948E+02  -0.97861   2.44654
     269.50   3.430559     0.1346E+02  -1.13911   2.84779
     270.50   3.432167     0.1704E+02  -1.03691   2.59227
     271.50   3.433770     0.1178E+02  -1.19713   2.99282
     272.50   3.435366     0.8928E+01  -1.31752   3.29381
     273.50   3.436957     0.1191E+02  -1.19240   2.98100
     274.50   3.438542     0.6179E+01  -1.47735   3.69338
     275.50   3.440122     0.9117E+01  -1.30844   3.27109
     276.50   3.441695     0.1255E+02  -1.16966   2.92415
     277.50   3.443263     0.1335E+02  -1.14285   2.85713
     278.50   3.444825     0.7139E+01  -1.41461   3.53653
     279.50   3.446382     0.2736E+01  -1.83118   4.57794
     280.50   3.447933     0.3459E+01  -1.72931   4.32329
     281.50   3.449478     0.1140E+02  -1.21140   3.02850
     282.50   3.451018     0.1749E+02  -1.02541   2.56353
     283.50   3.452553     0.1612E+02  -1.06093   2.65231
     284.50   3.454082     0.1063E+02  -1.24189   3.10473
     285.50   3.455606     0.5190E+01  -1.55309   3.88272
     286.50   3.457125     0.1572E+02  -1.07193   2.67983
     287.50   3.458638     0.2231E+02  -0.91984   2.29960
     288.50   3.460146     0.2011E+02  -0.96477   2.41191
     289.50   3.461648     0.2532E+02  -0.86485   2.16212
     291.00   3.463893     0.3522E+02  -0.72153   1.80381
     293.00   3.466868     0.3187E+02  -0.76488   1.91220
     295.00   3.469822     0.3047E+02  -0.78438   1.96096
     297.00   3.472756     0.3206E+02  -0.76226   1.90564
     299.00   3.475671     0.3341E+02  -0.74436   1.86089
     301.00   3.478566     0.3380E+02  -0.73938   1.84846
     303.00   3.481443     0.3623E+02  -0.70926   1.77314
     305.00   3.484300     0.3795E+02  -0.68906   1.72264
     307.00   3.487138     0.3874E+02  -0.68008   1.70019
     309.00   3.489959     0.3584E+02  -0.71389   1.78473
     311.00   3.492760     0.4166E+02  -0.64859   1.62148
     313.00   3.495544     0.3817E+02  -0.68655   1.71638
     315.00   3.498311     0.3759E+02  -0.69319   1.73296
     317.00   3.501059     0.4253E+02  -0.63957   1.59893
     319.00   3.503791     0.3705E+02  -0.69947   1.74866
     321.00   3.506505     0.4129E+02  -0.65240   1.63100
     323.00   3.509202     0.3545E+02  -0.71867   1.79666
     325.00   3.511883     0.4982E+02  -0.57084   1.42709
     327.00   3.514548     0.5787E+02  -0.50582   1.26454
     329.00   3.517196     0.5656E+02  -0.51580   1.28949
     331.00   3.519828     0.5268E+02  -0.54663   1.36657
     333.00   3.522444     0.5433E+02  -0.53324   1.33309
     335.00   3.525045     0.5262E+02  -0.54716   1.36789
     337.00   3.527630     0.3851E+02  -0.68270   1.70675
     339.00   3.530200     0.4525E+02  -0.61263   1.53157
     341.00   3.532754     0.4709E+02  -0.59539   1.48847
     343.00   3.535294     0.5091E+02  -0.56147   1.40367
     345.00   3.537819     0.5482E+02  -0.52934   1.32336
     347.00   3.540329     0.5709E+02  -0.51173   1.27932
     349.00   3.542825     0.6350E+02  -0.46547   1.16368
     351.00   3.545307     0.6740E+02  -0.43964   1.09910
     353.00   3.547775     0.6074E+02  -0.48482   1.21204
     355.00   3.550228     0.6926E+02  -0.42776   1.06941
     357.00   3.552668     0.5133E+02  -0.55789   1.39474
     359.00   3.555094     0.5239E+02  -0.54899   1.37249
     361.00   3.557507     0.6413E+02  -0.46121   1.15303
     363.00   3.559907     0.6588E+02  -0.44952   1.12379
     364.00   3.561101     0.6750E+02  -0.43900   1.09750
     365.00   3.562293     0.7301E+02  -0.40487   1.01216
     367.00   3.564666     0.7746E+02  -0.37918   0.94795
     369.00   3.567026     0.7018E+02  -0.42209   1.05521
     371.00   3.569374     0.7413E+02  -0.39826   0.99566
     373.00   3.571709     0.5015E+02  -0.56804   1.42010
     375.00   3.574031     0.5716E+02  -0.51120   1.27799
     377.00   3.576341     0.7350E+02  -0.40198   1.00494
     379.00   3.578639     0.7585E+02  -0.38829   0.97073
     381.00   3.580925     0.7246E+02  -0.40816   1.02039
     383.00   3.583199     0.4193E+02  -0.64573   1.61432
     385.00   3.585461     0.5865E+02  -0.49997   1.24993
     387.00   3.587711     0.5767E+02  -0.50732   1.26829
     389.00   3.589950     0.6930E+02  -0.42752   1.06880
     391.00   3.592177     0.8316E+02  -0.34834   0.87086
     393.00   3.594393     0.4076E+02  -0.65799   1.64498
     395.00   3.596597     0.7289E+02  -0.40563   1.01407
     397.00   3.598790     0.5021E+02  -0.56750   1.41875
     399.00   3.600973     0.1064E+03  -0.24133   0.60332
     401.00   3.603144     0.1165E+03  -0.20177   0.50444
     403.00   3.605305     0.1152E+03  -0.20677   0.51692
     405.00   3.607455     0.1108E+03  -0.22372   0.55931
     407.00   3.609594     0.1052E+03  -0.24610   0.61526
     409.00   3.611723     0.1275E+03  -0.16281   0.40703
     411.00   3.613842     0.1198E+03  -0.18969   0.47423
     413.00   3.615950     0.1182E+03  -0.19566   0.48915
     415.00   3.618048     0.1158E+03  -0.20458   0.51145
     417.00   3.620136     0.1178E+03  -0.19697   0.49242
     419.00   3.622214     0.1145E+03  -0.20947   0.52368
     421.00   3.624282     0.1156E+03  -0.20530   0.51324
     423.00   3.626340     0.1098E+03  -0.22770   0.56925
     425.00   3.628389     0.1156E+03  -0.20524   0.51311
     427.00   3.630428     0.1090E+03  -0.23079   0.57699
     429.00   3.632457     0.1015E+03  -0.26199   0.65498
     431.00   3.634477     0.8684E+02  -0.32955   0.82387
     433.00   3.636488     0.1281E+03  -0.16062   0.40154
     435.00   3.638489     0.1264E+03  -0.16646   0.41616
     437.00   3.640481     0.1372E+03  -0.13094   0.32736
     439.00   3.642465     0.1229E+03  -0.17875   0.44686
     441.00   3.644439     0.1312E+03  -0.15035   0.37589
     443.00   3.646404     0.1425E+03  -0.11439   0.28598
     445.00   3.648360     0.1431E+03  -0.11269   0.28171
     447.00   3.650307     0.1525E+03  -0.08489   0.21223
     449.00   3.652246     0.1568E+03  -0.07302   0.18255
     451.00   3.654176     0.1762E+03  -0.02225   0.05562
     453.00   3.656098     0.1560E+03  -0.07514   0.18786
     455.00   3.658011     0.1634E+03  -0.05501   0.13753
     457.00   3.659916     0.1761E+03  -0.02264   0.05659
     459.00   3.661813     0.1659E+03  -0.04841   0.12103
     461.00   3.663701     0.1715E+03  -0.03394   0.08486
     463.00   3.665581     0.1680E+03  -0.04306   0.10765
     465.00   3.667453     0.1700E+03  -0.03785   0.09463
     467.00   3.669317     0.1769E+03  -0.02055   0.05136
     469.00   3.671173     0.1740E+03  -0.02780   0.06950
     471.00   3.673021     0.1702E+03  -0.03726   0.09314
     473.00   3.674861     0.1755E+03  -0.02407   0.06016
     475.00   3.676694     0.1795E+03  -0.01425   0.03562
     477.00   3.678518     0.1759E+03  -0.02312   0.05781
     479.00   3.680336     0.1770E+03  -0.02027   0.05068
     481.00   3.682145     0.1777E+03  -0.01869   0.04673
     483.00   3.683947     0.1823E+03  -0.00740   0.01850
     485.00   3.685742     0.1748E+03  -0.02571   0.06428
     487.00   3.687529     0.1609E+03  -0.06178   0.15445
     489.00   3.689309     0.1779E+03  -0.01817   0.04541
     491.00   3.691082     0.1790E+03  -0.01535   0.03839
     493.00   3.692847     0.1762E+03  -0.02226   0.05565
     495.00   3.694605     0.1827E+03  -0.00660   0.01650
     497.00   3.696356     0.1773E+03  -0.01949   0.04871
     499.00   3.698101     0.1660E+03  -0.04827   0.12068
     501.00   3.699838     0.1575E+03  -0.07098   0.17744
     503.00   3.701568     0.1677E+03  -0.04380   0.10950
     505.00   3.703291     0.1675E+03  -0.04425   0.11062
     507.00   3.705008     0.1746E+03  -0.02631   0.06578
     509.00   3.706718     0.1662E+03  -0.04753   0.11882
     511.00   3.708421     0.1699E+03  -0.03807   0.09516
     513.00   3.710117     0.1655E+03  -0.04956   0.12391
     515.00   3.711807     0.1599E+03  -0.06454   0.16136
     517.00   3.713490     0.1453E+03  -0.10607   0.26518
     519.00   3.715167     0.1508E+03  -0.08981   0.22452
     521.00   3.716838     0.1624E+03  -0.05763   0.14408
     523.00   3.718502     0.1760E+03  -0.02273   0.05681
     525.00   3.720159     0.1832E+03  -0.00546   0.01364
     527.00   3.721811     0.1626E+03  -0.05722   0.14305
     529.00   3.723456     0.1864E+03   0.00223  -0.00558
     531.00   3.725095     0.1968E+03   0.02570  -0.06425
     533.00   3.726727     0.1754E+03  -0.02418   0.06044
     535.00   3.728354     0.1916E+03   0.01421  -0.03552
     537.00   3.729974     0.1898E+03   0.01002  -0.02505
     539.00   3.731589     0.1865E+03   0.00245  -0.00612
     541.00   3.733197     0.1836E+03  -0.00439   0.01099
     543.00   3.734800     0.1864E+03   0.00227  -0.00567
     545.00   3.736397     0.1899E+03   0.01030  -0.02575
     547.00   3.737987     0.1859E+03   0.00092  -0.00229
     549.00   3.739572     0.1879E+03   0.00571  -0.01428
     551.00   3.741152     0.1855E+03   0.00000   0.00000
     553.00   3.742725     0.1917E+03   0.01445  -0.03612
     555.00   3.744293     0.1949E+03   0.02165  -0.05412
     557.00   3.745855     0.1904E+03   0.01145  -0.02864
     559.00   3.747412     0.1861E+03   0.00143  -0.00357
     561.00   3.748963     0.1915E+03   0.01392  -0.03479
     563.00   3.750508     0.1912E+03   0.01327  -0.03319
     565.00   3.752048     0.1941E+03   0.01983  -0.04957
     567.00   3.753583     0.1898E+03   0.01008  -0.02519
     569.00   3.755112     0.1953E+03   0.02244  -0.05611
     571.00   3.756636     0.1896E+03   0.00949  -0.02373
     573.00   3.758155     0.2037E+03   0.04068  -0.10170
     575.00   3.759668     0.1981E+03   0.02856  -0.07140
     577.00   3.761176     0.2002E+03   0.03316  -0.08290
     579.00   3.762679     0.1938E+03   0.01901  -0.04752
     581.00   3.764176     0.2004E+03   0.03369  -0.08422
     583.00   3.765669     0.2043E+03   0.04194  -0.10484
     585.00   3.767156     0.1973E+03   0.02684  -0.06709
     587.00   3.768638     0.1965E+03   0.02504  -0.06260
     589.00   3.770115     0.1762E+03  -0.02233   0.05583
     591.00   3.771587     0.1930E+03   0.01729  -0.04321
     593.00   3.773055     0.1948E+03   0.02127  -0.05317
     595.00   3.774517     0.1955E+03   0.02285  -0.05713
     597.00   3.775974     0.1989E+03   0.03030  -0.07574
     599.00   3.777427     0.1967E+03   0.02561  -0.06403
     601.00   3.778874     0.1946E+03   0.02092  -0.05231
     603.00   3.780317     0.1991E+03   0.03079  -0.07698
     605.00   3.781755     0.2029E+03   0.03905  -0.09763
     607.00   3.783189     0.2021E+03   0.03720  -0.09301
     609.00   3.784617     0.1967E+03   0.02556  -0.06390
     611.00   3.786041     0.1976E+03   0.02759  -0.06897
     613.00   3.787461     0.1884E+03   0.00692  -0.01729
     615.00   3.788875     0.1927E+03   0.01664  -0.04159
     617.00   3.790285     0.1816E+03  -0.00917   0.02292
     619.00   3.791691     0.1906E+03   0.01178  -0.02945
     621.00   3.793092     0.1889E+03   0.00805  -0.02012
     623.00   3.794488     0.1838E+03  -0.00398   0.00995
     625.00   3.795880     0.1791E+03  -0.01529   0.03822
     627.00   3.797267     0.1874E+03   0.00444  -0.01109
     629.00   3.798651     0.1911E+03   0.01294  -0.03234
     631.00   3.800029     0.1879E+03   0.00569  -0.01422
     633.00   3.801404     0.1913E+03   0.01334  -0.03334
     635.00   3.802774     0.1931E+03   0.01749  -0.04372
     637.00   3.804139     0.1930E+03   0.01720  -0.04301
     639.00   3.805501     0.1956E+03   0.02300  -0.05750
     641.00   3.806858     0.1921E+03   0.01525  -0.03811
     643.00   3.808211     0.1939E+03   0.01940  -0.04851
     645.00   3.809560     0.1935E+03   0.01845  -0.04612
     647.00   3.810904     0.1932E+03   0.01766  -0.04416
     649.00   3.812245     0.1899E+03   0.01034  -0.02586
     651.00   3.813581     0.1961E+03   0.02424  -0.06061
     653.00   3.814913     0.1971E+03   0.02652  -0.06629
     655.00   3.816241     0.1920E+03   0.01493  -0.03732
     657.00   3.817565     0.1808E+03  -0.01118   0.02795
     659.00   3.818885     0.1921E+03   0.01516  -0.03789
     661.00   3.820201     0.1939E+03   0.01926  -0.04814
     663.00   3.821513     0.1917E+03   0.01424  -0.03560
     665.00   3.822822     0.1897E+03   0.00982  -0.02454
     667.00   3.824126     0.1853E+03  -0.00047   0.00117
     669.00   3.825426     0.1870E+03   0.00360  -0.00899
     671.00   3.826723     0.1800E+03  -0.01310   0.03275
     673.00   3.828015     0.1833E+03  -0.00514   0.01285
     675.00   3.829304     0.1804E+03  -0.01215   0.03037
     677.00   3.830589     0.1814E+03  -0.00964   0.02411
     679.00   3.831870     0.1802E+03  -0.01262   0.03155
     681.00   3.833147     0.1810E+03  -0.01060   0.02650
     683.00   3.834421     0.1835E+03  -0.00462   0.01156
     685.00   3.835690     0.1800E+03  -0.01304   0.03261
     687.00   3.836957     0.1828E+03  -0.00624   0.01559
     689.00   3.838219     0.1862E+03   0.00177  -0.00442
     691.00   3.839478     0.1873E+03   0.00425  -0.01063
     693.00   3.840733     0.1868E+03   0.00319  -0.00796
     695.00   3.841985     0.1870E+03   0.00365  -0.00912
     697.00   3.843233     0.1901E+03   0.01078  -0.02695
     699.00   3.844477     0.1902E+03   0.01095  -0.02739
     701.00   3.845718     0.1886E+03   0.00736  -0.01839
     703.00   3.846955     0.1901E+03   0.01078  -0.02694
     705.00   3.848189     0.1872E+03   0.00405  -0.01013
     707.00   3.849419     0.1793E+03  -0.01460   0.03651
     709.00   3.850646     0.1723E+03  -0.03188   0.07970
     711.00   3.851870     0.1675E+03  -0.04433   0.11083
     713.00   3.853090     0.1634E+03  -0.05510   0.13776
     715.00   3.854306     0.1630E+03  -0.05603   0.14008
     717.00   3.855519     0.1654E+03  -0.04981   0.12451
     719.00   3.856729     0.1628E+03  -0.05669   0.14173
     721.00   3.857935     0.1672E+03  -0.04502   0.11255
     723.00   3.859138     0.1718E+03  -0.03314   0.08284
     725.00   3.860338     0.1739E+03  -0.02802   0.07004
     727.00   3.861534     0.1760E+03  -0.02281   0.05702
     729.00   3.862728     0.1759E+03  -0.02291   0.05727
     731.00   3.863917     0.1823E+03  -0.00749   0.01872
     733.00   3.865104     0.1825E+03  -0.00711   0.01777
     735.00   3.866287     0.1856E+03   0.00040  -0.00101
     737.00   3.867467     0.1902E+03   0.01083  -0.02707
     739.00   3.868644     0.1869E+03   0.00338  -0.00845
     741.00   3.869818     0.1867E+03   0.00288  -0.00721
     743.00   3.870989     0.1907E+03   0.01209  -0.03023
     745.00   3.872156     0.1907E+03   0.01202  -0.03005
     747.00   3.873321     0.1932E+03   0.01784  -0.04460
     749.00   3.874482     0.1923E+03   0.01563  -0.03909
     751.00   3.875640     0.1933E+03   0.01797  -0.04492
     753.00   3.876795     0.1950E+03   0.02180  -0.05449
     755.00   3.877947     0.1959E+03   0.02368  -0.05921
     757.00   3.879096     0.1948E+03   0.02130  -0.05326
     759.00   3.880242     0.1905E+03   0.01170  -0.02924
     761.00   3.881385     0.1867E+03   0.00276  -0.00690
     763.00   3.882524     0.1826E+03  -0.00689   0.01722
     765.00   3.883662     0.1779E+03  -0.01810   0.04524
     767.00   3.884795     0.1698E+03  -0.03825   0.09562
     769.00   3.885926     0.1733E+03  -0.02953   0.07382
     771.00   3.887054     0.1701E+03  -0.03754   0.09384
     773.00   3.888180     0.1708E+03  -0.03583   0.08957
     775.00   3.889302     0.1694E+03  -0.03941   0.09853
     777.00   3.890421     0.1720E+03  -0.03286   0.08215
     779.00   3.891537     0.1721E+03  -0.03237   0.08093
     781.00   3.892651     0.1728E+03  -0.03065   0.07661
     783.00   3.893762     0.1725E+03  -0.03149   0.07874
     785.00   3.894870     0.1710E+03  -0.03531   0.08827
     787.00   3.895975     0.1738E+03  -0.02828   0.07070
     789.00   3.897077     0.1730E+03  -0.03015   0.07537
     791.00   3.898176     0.1694E+03  -0.03941   0.09851
     793.00   3.899273     0.1702E+03  -0.03732   0.09329
     795.00   3.900367     0.1700E+03  -0.03775   0.09437
     797.00   3.901458     0.1742E+03  -0.02713   0.06783
     799.00   3.902547     0.1743E+03  -0.02692   0.06730
     801.00   3.903632     0.1780E+03  -0.01786   0.04465
     803.00   3.904716     0.1787E+03  -0.01618   0.04045
     805.00   3.905796     0.1780E+03  -0.01795   0.04487
     807.00   3.906873     0.1802E+03  -0.01264   0.03159
     809.00   3.907948     0.1788E+03  -0.01590   0.03975
     811.00   3.909021     0.1798E+03  -0.01344   0.03360
     813.00   3.910090     0.1823E+03  -0.00758   0.01894
     815.00   3.911158     0.1829E+03  -0.00610   0.01525
     817.00   3.912222     0.1830E+03  -0.00584   0.01460
     819.00   3.913284     0.1797E+03  -0.01383   0.03458
     821.00   3.914343     0.1779E+03  -0.01821   0.04552
     823.00   3.915400     0.1783E+03  -0.01722   0.04306
     825.00   3.916454     0.1783E+03  -0.01723   0.04308
     827.00   3.917506     0.1791E+03  -0.01521   0.03801
     829.00   3.918555     0.1777E+03  -0.01865   0.04662
     831.00   3.919601     0.1741E+03  -0.02738   0.06844
     833.00   3.920645     0.1728E+03  -0.03085   0.07713
     835.00   3.921686     0.1730E+03  -0.03026   0.07564
     837.00   3.922725     0.1734E+03  -0.02918   0.07295
     839.00   3.923762     0.1693E+03  -0.03964   0.09911
     841.00   3.924796     0.1732E+03  -0.02979   0.07448
     843.00   3.925828     0.1691E+03  -0.04020   0.10051
     845.00   3.926857     0.1660E+03  -0.04810   0.12025
     847.00   3.927883     0.1648E+03  -0.05120   0.12799
     849.00   3.928908     0.1666E+03  -0.04657   0.11642
     851.00   3.929929     0.1603E+03  -0.06337   0.15843
     853.00   3.930949     0.1660E+03  -0.04821   0.12054
     855.00   3.931966     0.1573E+03  -0.07160   0.17899
     857.00   3.932981     0.1688E+03  -0.04082   0.10204
     859.00   3.933993     0.1673E+03  -0.04482   0.11205
     861.00   3.935003     0.1683E+03  -0.04230   0.10574
     863.00   3.936011     0.1702E+03  -0.03722   0.09305
     865.00   3.937016     0.1708E+03  -0.03586   0.08966
     867.00   3.938019     0.1595E+03  -0.06552   0.16381
     869.00   3.939020     0.1674E+03  -0.04456   0.11140
     871.00   3.940018     0.1708E+03  -0.03566   0.08915
     873.00   3.941014     0.1713E+03  -0.03440   0.08599
     875.00   3.942008     0.1697E+03  -0.03853   0.09632
     877.00   3.943000     0.1714E+03  -0.03431   0.08577
     879.00   3.943989     0.1721E+03  -0.03254   0.08135
     881.00   3.944976     0.1694E+03  -0.03924   0.09811
     883.00   3.945961     0.1706E+03  -0.03638   0.09096
     885.00   3.946943     0.1699E+03  -0.03817   0.09543
     887.00   3.947924     0.1658E+03  -0.04873   0.12183
     889.00   3.948902     0.1675E+03  -0.04416   0.11041
     891.00   3.949878     0.1684E+03  -0.04206   0.10515
     893.00   3.950851     0.1664E+03  -0.04724   0.11810
     895.00   3.951823     0.1662E+03  -0.04759   0.11898
     897.00   3.952792     0.1666E+03  -0.04660   0.11650
     899.00   3.953760     0.1668E+03  -0.04618   0.11545
     901.00   3.954725     0.1626E+03  -0.05726   0.14315
     903.00   3.955688     0.1668E+03  -0.04604   0.11509
     905.00   3.956649     0.1694E+03  -0.03933   0.09831
     907.00   3.957607     0.1686E+03  -0.04145   0.10363
     909.00   3.958564     0.1655E+03  -0.04959   0.12397
     911.00   3.959518     0.1668E+03  -0.04618   0.11545
     913.00   3.960471     0.1681E+03  -0.04272   0.10680
     915.00   3.961421     0.1675E+03  -0.04437   0.11094
     917.00   3.962369     0.1669E+03  -0.04573   0.11433
     919.00   3.963315     0.1675E+03  -0.04432   0.11081
     921.00   3.964260     0.1638E+03  -0.05388   0.13471
     923.00   3.965202     0.1626E+03  -0.05726   0.14314
     925.00   3.966142     0.1619E+03  -0.05908   0.14770
     927.00   3.967080     0.1628E+03  -0.05674   0.14185
     929.00   3.968016     0.1612E+03  -0.06084   0.15211
     931.00   3.968950     0.1618E+03  -0.05942   0.14856
     933.00   3.969882     0.1616E+03  -0.05990   0.14974
     935.00   3.970812     0.1612E+03  -0.06104   0.15261
     937.00   3.971740     0.1591E+03  -0.06670   0.16676
     939.00   3.972666     0.1609E+03  -0.06167   0.15417
     941.00   3.973590     0.1584E+03  -0.06863   0.17158
     943.00   3.974512     0.1605E+03  -0.06281   0.15703
     945.00   3.975432     0.1587E+03  -0.06760   0.16899
     947.00   3.976350     0.1606E+03  -0.06241   0.15603
     949.00   3.977266     0.1606E+03  -0.06243   0.15608
     951.00   3.978180     0.1591E+03  -0.06658   0.16644
     953.00   3.979093     0.1595E+03  -0.06554   0.16386
     955.00   3.980003     0.1569E+03  -0.07277   0.18192
     957.00   3.980912     0.1581E+03  -0.06941   0.17352
     959.00   3.981819     0.1595E+03  -0.06560   0.16400
     961.00   3.982723     0.1579E+03  -0.06991   0.17478
     963.00   3.983626     0.1582E+03  -0.06902   0.17255
     965.00   3.984527     0.1562E+03  -0.07460   0.18650
     967.00   3.985426     0.1563E+03  -0.07442   0.18605
     969.00   3.986324     0.1574E+03  -0.07114   0.17784
     971.00   3.987219     0.1562E+03  -0.07449   0.18622
     973.00   3.988113     0.1554E+03  -0.07694   0.19235
     975.00   3.989005     0.1549E+03  -0.07824   0.19561
     977.00   3.989895     0.1551E+03  -0.07777   0.19444
     979.00   3.990783     0.1535E+03  -0.08213   0.20532
     981.00   3.991669     0.1558E+03  -0.07579   0.18949
     983.00   3.992553     0.1549E+03  -0.07825   0.19561
     985.00   3.993436     0.1553E+03  -0.07717   0.19293
     987.00   3.994317     0.1543E+03  -0.08004   0.20009
     989.00   3.995196     0.1538E+03  -0.08124   0.20311
     991.00   3.996074     0.1535E+03  -0.08227   0.20567
     993.00   3.996949     0.1536E+03  -0.08183   0.20457
     995.00   3.997823     0.1536E+03  -0.08197   0.20494
     997.00   3.998695     0.1534E+03  -0.08234   0.20584
     999.00   3.999566     0.1530E+03  -0.08366   0.20915
    1003.00   4.001301     0.1518E+03  -0.08708   0.21771
    1008.00   4.003461     0.1503E+03  -0.09138   0.22845
    1013.00   4.005610     0.1506E+03  -0.09039   0.22599
    1018.00   4.007748     0.1490E+03  -0.09515   0.23787
    1023.00   4.009875     0.1487E+03  -0.09586   0.23966
    1028.00   4.011993     0.1485E+03  -0.09657   0.24142
    1033.00   4.014100     0.1465E+03  -0.10248   0.25619
    1038.00   4.016197     0.1456E+03  -0.10510   0.26275
    1043.00   4.018284     0.1458E+03  -0.10446   0.26114
    1048.00   4.020361     0.1446E+03  -0.10815   0.27038
    1053.00   4.022429     0.1443E+03  -0.10916   0.27289
    1058.00   4.024486     0.1426E+03  -0.11417   0.28542
    1063.00   4.026533     0.1419E+03  -0.11641   0.29103
    1068.00   4.028571     0.1400E+03  -0.12215   0.30538
    1073.00   4.030600     0.1400E+03  -0.12204   0.30511
    1078.00   4.032619     0.1388E+03  -0.12582   0.31454
    1083.00   4.034628     0.1370E+03  -0.13151   0.32877
    1088.00   4.036629     0.1363E+03  -0.13362   0.33406
    1093.00   4.038620     0.1358E+03  -0.13534   0.33835
    1098.00   4.040603     0.1341E+03  -0.14075   0.35188
    1103.00   4.042576     0.1338E+03  -0.14187   0.35469
    1108.00   4.044539     0.1328E+03  -0.14493   0.36232
    1113.00   4.046495     0.1322E+03  -0.14708   0.36769
    1118.00   4.048442     0.1312E+03  -0.15031   0.37579
    1123.00   4.050380     0.1311E+03  -0.15075   0.37688
    1128.00   4.052309     0.1298E+03  -0.15506   0.38766
    1133.00   4.054230     0.1295E+03  -0.15596   0.38991
    1138.00   4.056142     0.1286E+03  -0.15887   0.39718
    1143.00   4.058046     0.1276E+03  -0.16257   0.40642
    1148.00   4.059942     0.1284E+03  -0.15976   0.39940
    1153.00   4.061830     0.1281E+03  -0.16085   0.40212
    1158.00   4.063708     0.1268E+03  -0.16511   0.41277
    1163.00   4.065579     0.1253E+03  -0.17021   0.42553
    1168.00   4.067443     0.1252E+03  -0.17057   0.42643
    1173.00   4.069298     0.1256E+03  -0.16913   0.42282
    1178.00   4.071145     0.1238E+03  -0.17543   0.43858
    1183.00   4.072985     0.1230E+03  -0.17824   0.44559
    1188.00   4.074817     0.1217E+03  -0.18301   0.45754
    1193.00   4.076640     0.1230E+03  -0.17824   0.44561
    1198.00   4.078457     0.1198E+03  -0.18969   0.47422
    1203.00   4.080266     0.1213E+03  -0.18452   0.46130
    1208.00   4.082067     0.1202E+03  -0.18827   0.47067
    1213.00   4.083861     0.1202E+03  -0.18837   0.47093
    1218.00   4.085648     0.1202E+03  -0.18841   0.47104
    1223.00   4.087426     0.1195E+03  -0.19107   0.47769
    1228.00   4.089198     0.1187E+03  -0.19399   0.48497
    1233.00   4.090963     0.1181E+03  -0.19611   0.49027
    1238.00   4.092721     0.1176E+03  -0.19780   0.49449
    1243.00   4.094471     0.1166E+03  -0.20140   0.50349
    1248.00   4.096214     0.1165E+03  -0.20208   0.50519
    1253.00   4.097951     0.1155E+03  -0.20563   0.51407
    1258.00   4.099681     0.1152E+03  -0.20701   0.51752
    1263.00   4.101403     0.1146E+03  -0.20910   0.52276
    1268.00   4.103119     0.1138E+03  -0.21230   0.53074
    1273.00   4.104828     0.1136E+03  -0.21274   0.53185
    1278.00   4.106531     0.1135E+03  -0.21334   0.53334
    1283.00   4.108227     0.1105E+03  -0.22506   0.56266
    1288.00   4.109916     0.1117E+03  -0.22012   0.55030
    1293.00   4.111598     0.1108E+03  -0.22383   0.55957
    1298.00   4.113275     0.1113E+03  -0.22172   0.55431
    1303.00   4.114944     0.1102E+03  -0.22591   0.56478
    1308.00   4.116608     0.1103E+03  -0.22573   0.56434
    1313.00   4.118265     0.1087E+03  -0.23219   0.58048
    1318.00   4.119915     0.1083E+03  -0.23375   0.58438
    1323.00   4.121560     0.1083E+03  -0.23369   0.58422
    1328.00   4.123198     0.1069E+03  -0.23943   0.59858
    1333.00   4.124830     0.1070E+03  -0.23872   0.59681
    1338.00   4.126456     0.1063E+03  -0.24193   0.60481
    1343.00   4.128076     0.1064E+03  -0.24150   0.60376
    1348.00   4.129690     0.1057E+03  -0.24427   0.61069
    1353.00   4.131298     0.1052E+03  -0.24626   0.61566
    1358.00   4.132900     0.1039E+03  -0.25162   0.62906
    1363.00   4.134496     0.1036E+03  -0.25312   0.63281
    1368.00   4.136086     0.1039E+03  -0.25176   0.62941
    1373.00   4.137671     0.1041E+03  -0.25096   0.62739
    1378.00   4.139249     0.1038E+03  -0.25225   0.63061
    1383.00   4.140822     0.1037E+03  -0.25266   0.63164
    1388.00   4.142389     0.1027E+03  -0.25654   0.64135
    1393.00   4.143951     0.9861E+02  -0.27435   0.68587
    1398.00   4.145507     0.9883E+02  -0.27337   0.68343
    1403.00   4.147058     0.9790E+02  -0.27748   0.69370
    1408.00   4.148602     0.9839E+02  -0.27532   0.68829
    1413.00   4.150142     0.9754E+02  -0.27908   0.69770
    1418.00   4.151676     0.9800E+02  -0.27706   0.69264
    1423.00   4.153205     0.9708E+02  -0.28117   0.70291
    1428.00   4.154728     0.9613E+02  -0.28543   0.71356
    1433.00   4.156246     0.9749E+02  -0.27930   0.69825
    1438.00   4.157759     0.9780E+02  -0.27795   0.69488
    1443.00   4.159266     0.9610E+02  -0.28557   0.71392
    1448.00   4.160769     0.9745E+02  -0.27950   0.69875
    1453.00   4.162266     0.9657E+02  -0.28342   0.70855
    1457.00   4.163460     0.9693E+02  -0.28180   0.70450
    1462.00   4.164948     0.9458E+02  -0.29246   0.73116
    1468.00   4.166726     0.9478E+02  -0.29156   0.72889
    1473.00   4.168202     0.9399E+02  -0.29517   0.73793
    1478.00   4.169674     0.9451E+02  -0.29278   0.73194
    1483.00   4.171141     0.9474E+02  -0.29175   0.72937
    1488.00   4.172603     0.9404E+02  -0.29494   0.73735
    1493.00   4.174060     0.9566E+02  -0.28753   0.71882
    1498.00   4.175512     0.9506E+02  -0.29027   0.72567
    1503.00   4.176959     0.9412E+02  -0.29461   0.73653
    1508.00   4.178401     0.9415E+02  -0.29445   0.73612
    1513.00   4.179839     0.9549E+02  -0.28833   0.72083
    1518.00   4.181272     0.9564E+02  -0.28765   0.71912
    1523.00   4.182700     0.9548E+02  -0.28836   0.72090
    1528.00   4.184123     0.9592E+02  -0.28636   0.71591
    1533.00   4.185542     0.9557E+02  -0.28794   0.71985
    1538.00   4.186956     0.9455E+02  -0.29263   0.73156
    1543.00   4.188366     0.9505E+02  -0.29031   0.72577
    1548.00   4.189771     0.9519E+02  -0.28970   0.72426
    1553.00   4.191172     0.9458E+02  -0.29246   0.73115
    1558.00   4.192567     0.9245E+02  -0.30238   0.75594
    1563.00   4.193959     0.9356E+02  -0.29717   0.74292
    1568.00   4.195346     0.9307E+02  -0.29948   0.74870
    1573.00   4.196729     0.9417E+02  -0.29438   0.73596
    1578.00   4.198107     0.8833E+02  -0.32217   0.80543
    1583.00   4.199481     0.9064E+02  -0.31093   0.77733
    1588.00   4.200850     0.9022E+02  -0.31295   0.78238
    1593.00   4.202216     0.9231E+02  -0.30301   0.75753
    1598.00   4.203577     0.9326E+02  -0.29859   0.74647
    1605.00   4.205475     0.9052E+02  -0.31151   0.77878
    1615.00   4.208173     0.9164E+02  -0.30620   0.76550
    1625.00   4.210854     0.8925E+02  -0.31768   0.79420
    1635.00   4.213518     0.9086E+02  -0.30990   0.77475
    1645.00   4.216166     0.8758E+02  -0.32585   0.81463
    1655.00   4.218798     0.8858E+02  -0.32092   0.80230
    1665.00   4.221415     0.8599E+02  -0.33382   0.83455
    1675.00   4.224015     0.8568E+02  -0.33540   0.83849
    1685.00   4.226600     0.8453E+02  -0.34125   0.85312
    1695.00   4.229170     0.8355E+02  -0.34631   0.86577
    1705.00   4.231725     0.8175E+02  -0.35579   0.88946
    1715.00   4.234264     0.8033E+02  -0.36339   0.90849
    1725.00   4.236789     0.7867E+02  -0.37248   0.93120
    1735.00   4.239300     0.7640E+02  -0.38518   0.96296
    1745.00   4.241796     0.7557E+02  -0.38990   0.97476
    1755.00   4.244277     0.7442E+02  -0.39657   0.99143
    1765.00   4.246745     0.7295E+02  -0.40527   1.01317
    1775.00   4.249198     0.7137E+02  -0.41473   1.03682
    1785.00   4.251638     0.7041E+02  -0.42063   1.05158
    1795.00   4.254065     0.6896E+02  -0.42968   1.07421
    1805.00   4.256477     0.6750E+02  -0.43897   1.09743
    1815.00   4.258877     0.6617E+02  -0.44758   1.11895
    1825.00   4.261263     0.6522E+02  -0.45388   1.13469
    1835.00   4.263636     0.6420E+02  -0.46076   1.15191
    1845.00   4.265996     0.6290E+02  -0.46962   1.17406
    1855.00   4.268344     0.6224E+02  -0.47424   1.18559
    1865.00   4.270679     0.6082E+02  -0.48426   1.21064
    1875.00   4.273001     0.5938E+02  -0.49465   1.23663
    1885.00   4.275311     0.5894E+02  -0.49789   1.24473
    1895.00   4.277609     0.5698E+02  -0.51252   1.28131
    1905.00   4.279895     0.5692E+02  -0.51299   1.28248
    1915.00   4.282169     0.5571E+02  -0.52234   1.30585
    1925.00   4.284431     0.5474E+02  -0.52997   1.32493
    1935.00   4.286681     0.5327E+02  -0.54175   1.35438
    1945.00   4.288919     0.5192E+02  -0.55292   1.38230
    1955.00   4.291147     0.5157E+02  -0.55585   1.38961
    1965.00   4.293363     0.5062E+02  -0.56396   1.40990
    1975.00   4.295567     0.4940E+02  -0.57459   1.43647
    1985.00   4.297760     0.4870E+02  -0.58078   1.45195
    1995.00   4.299943     0.4799E+02  -0.58709   1.46771
    2005.00   4.302114     0.4755E+02  -0.59110   1.47775
    2015.00   4.304275     0.4684E+02  -0.59763   1.49407
    2025.00   4.306425     0.4574E+02  -0.60795   1.51989
    2035.00   4.308564     0.4503E+02  -0.61480   1.53699
    2045.00   4.310693     0.4469E+02  -0.61809   1.54523
    2055.00   4.312812     0.4391E+02  -0.62571   1.56428
    2065.00   4.314920     0.4311E+02  -0.63367   1.58419
    2075.00   4.317018     0.4254E+02  -0.63948   1.59869
    2085.00   4.319106     0.4187E+02  -0.64640   1.61600
    2095.00   4.321184     0.4107E+02  -0.65472   1.63681
    2105.00   4.323252     0.4071E+02  -0.65855   1.64638
    2115.00   4.325311     0.4000E+02  -0.66626   1.66566
    2125.00   4.327359     0.3937E+02  -0.67310   1.68275
    2135.00   4.329398     0.3892E+02  -0.67806   1.69516
    2145.00   4.331428     0.3830E+02  -0.68506   1.71266
    2155.00   4.333447     0.3770E+02  -0.69199   1.72997
    2165.00   4.335458     0.3689E+02  -0.70137   1.75342
    2175.00   4.337460     0.3642E+02  -0.70696   1.76740
    2185.00   4.339452     0.3593E+02  -0.71277   1.78192
    2195.00   4.341434     0.3546E+02  -0.71853   1.79632
    2205.00   4.343409     0.3463E+02  -0.72878   1.82194
    2215.00   4.345374     0.3444E+02  -0.73126   1.82814
    2225.00   4.347330     0.3366E+02  -0.74119   1.85298
    2235.00   4.349277     0.3321E+02  -0.74695   1.86738
    2245.00   4.351216     0.3273E+02  -0.75337   1.88344
    2255.00   4.353147     0.3229E+02  -0.75923   1.89806
    2265.00   4.355068     0.3165E+02  -0.76794   1.91986
    2275.00   4.356981     0.3136E+02  -0.77194   1.92985
    2285.00   4.358886     0.3073E+02  -0.78070   1.95174
    2295.00   4.360783     0.2544E+02  -0.86282   2.15705
    2305.00   4.362671     0.2770E+02  -0.82574   2.06435
    2315.00   4.364551     0.2756E+02  -0.82805   2.07012
    2325.00   4.366423     0.2360E+02  -0.89537   2.23842
    2335.00   4.368287     0.2550E+02  -0.86169   2.15421
    2345.00   4.370143     0.2399E+02  -0.88822   2.22054
    2355.00   4.371991     0.2195E+02  -0.92678   2.31694
    2365.00   4.373831     0.2368E+02  -0.89387   2.23469
    2375.00   4.375664     0.2247E+02  -0.91664   2.29159
    2385.00   4.377488     0.2075E+02  -0.95117   2.37793
    2395.00   4.379306     0.2211E+02  -0.92370   2.30925
    2405.00   4.381115     0.2144E+02  -0.93703   2.34258
    2415.00   4.382917     0.1976E+02  -0.97255   2.43138
    2425.00   4.384712     0.2085E+02  -0.94917   2.37293
    2435.00   4.386499     0.2015E+02  -0.96406   2.41016
    2445.00   4.388279     0.1996E+02  -0.96816   2.42041
    2455.00   4.390052     0.1942E+02  -0.98014   2.45034
    2465.00   4.391817     0.1953E+02  -0.97760   2.44399
    2475.00   4.393575     0.1902E+02  -0.98907   2.47268
    2485.00   4.395327     0.1710E+02  -1.03537   2.58842
    2495.00   4.397071     0.1673E+02  -1.04478   2.61196
    2505.00   4.398808     0.1698E+02  -1.03838   2.59594
    2515.00   4.400538     0.1617E+02  -1.05944   2.64861
    2525.00   4.402262     0.1658E+02  -1.04875   2.62186
    2535.00   4.403978     0.1662E+02  -1.04757   2.61894
    2545.00   4.405688     0.1643E+02  -1.05255   2.63138
    2555.00   4.407391     0.1639E+02  -1.05374   2.63435
    2565.00   4.409087     0.1649E+02  -1.05101   2.62753
    2575.00   4.410777     0.1659E+02  -1.04844   2.62109
    2585.00   4.412460     0.1614E+02  -1.06049   2.65123
    2595.00   4.414137     0.1620E+02  -1.05863   2.64657
    2605.00   4.415808     0.1620E+02  -1.05884   2.64709
    2615.00   4.417472     0.1593E+02  -1.06602   2.66505
    2625.00   4.419129     0.1568E+02  -1.07299   2.68248
    2635.00   4.420781     0.1569E+02  -1.07257   2.68142
    2645.00   4.422426     0.1556E+02  -1.07636   2.69091
    2655.00   4.424065     0.1535E+02  -1.08222   2.70555
    2665.00   4.425697     0.1510E+02  -1.08924   2.72311
    2675.00   4.427324     0.1522E+02  -1.08591   2.71477
    2685.00   4.428945     0.1505E+02  -1.09069   2.72673
    2695.00   4.430559     0.1478E+02  -1.09859   2.74648
    2705.00   4.432167     0.1475E+02  -1.09949   2.74872
    2715.00   4.433770     0.1460E+02  -1.10378   2.75946
    2725.00   4.435367     0.1451E+02  -1.10669   2.76673
    2735.00   4.436957     0.1426E+02  -1.11412   2.78530
    2745.00   4.438542     0.1421E+02  -1.11557   2.78894
    2755.00   4.440122     0.1410E+02  -1.11895   2.79737
    2765.00   4.441695     0.1392E+02  -1.12454   2.81136
    2775.00   4.443263     0.1374E+02  -1.13026   2.82566
    2785.00   4.444825     0.1367E+02  -1.13251   2.83128
    2795.00   4.446382     0.1359E+02  -1.13505   2.83762
    2805.00   4.447933     0.1344E+02  -1.13993   2.84982
    2815.00   4.449478     0.1326E+02  -1.14573   2.86432
    2825.00   4.451018     0.1315E+02  -1.14926   2.87315
    2835.00   4.452553     0.1306E+02  -1.15241   2.88101
    2845.00   4.454082     0.1290E+02  -1.15768   2.89420
    2855.00   4.455606     0.1276E+02  -1.16232   2.90581
    2865.00   4.457125     0.1263E+02  -1.16670   2.91675
    2875.00   4.458638     0.1250E+02  -1.17151   2.92878
    2885.00   4.460146     0.1239E+02  -1.17536   2.93841
    2895.00   4.461648     0.1226E+02  -1.17976   2.94940
    2905.00   4.463146     0.1213E+02  -1.18455   2.96137
    2915.00   4.464639     0.1201E+02  -1.18863   2.97157
    2925.00   4.466126     0.1183E+02  -1.19532   2.98831
    2935.00   4.467608     0.1177E+02  -1.19752   2.99380
    2945.00   4.469085     0.1162E+02  -1.20303   3.00756
    2955.00   4.470557     0.1151E+02  -1.20727   3.01818
    2965.00   4.472025     0.1141E+02  -1.21106   3.02766
    2975.00   4.473487     0.1129E+02  -1.21559   3.03896
    2985.00   4.474944     0.1116E+02  -1.22067   3.05167
    2995.00   4.476397     0.1104E+02  -1.22546   3.06366
    3005.00   4.477844     0.1092E+02  -1.22988   3.07471
    3015.00   4.479287     0.1084E+02  -1.23343   3.08357
    3025.00   4.480725     0.1071E+02  -1.23843   3.09607
    3035.00   4.482159     0.1058E+02  -1.24388   3.10970
    3045.00   4.483587     0.1051E+02  -1.24654   3.11634
    3055.00   4.485011     0.1040E+02  -1.25111   3.12776
    3065.00   4.486430     0.1030E+02  -1.25555   3.13887
    3075.00   4.487845     0.1021E+02  -1.25914   3.14785
    3085.00   4.489255     0.1009E+02  -1.26451   3.16127
    3095.00   4.490661     0.9998E+01  -1.26838   3.17094
    3105.00   4.492062     0.9918E+01  -1.27186   3.17965
    3115.00   4.493458     0.9773E+01  -1.27823   3.19556
    3125.00   4.494850     0.9710E+01  -1.28105   3.20263
    3135.00   4.496238     0.9615E+01  -1.28530   3.21326
    3145.00   4.497621     0.9516E+01  -1.28981   3.22452
    3155.00   4.499000     0.9407E+01  -1.29483   3.23708
    3165.00   4.500374     0.9309E+01  -1.29937   3.24844
    3175.00   4.501744     0.9230E+01  -1.30309   3.25771
    3185.00   4.503109     0.9134E+01  -1.30759   3.26898
    3195.00   4.504471     0.9049E+01  -1.31166   3.27916
    3210.00   4.506505     0.8903E+01  -1.31876   3.29689
    3230.00   4.509202     0.8717E+01  -1.32790   3.31975
    3250.00   4.511883     0.8538E+01  -1.33692   3.34230
    3270.00   4.514548     0.8357E+01  -1.34620   3.36551
    3290.00   4.517196     0.8170E+01  -1.35604   3.39010
    3310.00   4.519828     0.8011E+01  -1.36457   3.41142
    3330.00   4.522444     0.7838E+01  -1.37408   3.43521
    3350.00   4.525045     0.7689E+01  -1.38239   3.45597
    3370.00   4.527630     0.7524E+01  -1.39183   3.47957
    3390.00   4.530200     0.7359E+01  -1.40145   3.50364
    3410.00   4.532754     0.7200E+01  -1.41096   3.52741
    3430.00   4.535294     0.7066E+01  -1.41908   3.54769
    3450.00   4.537819     0.6924E+01  -1.42791   3.56977
    3470.00   4.540329     0.6778E+01  -1.43720   3.59299
    3490.00   4.542826     0.6639E+01  -1.44616   3.61541
    3510.00   4.545307     0.6507E+01  -1.45490   3.63724
    3530.00   4.547775     0.6364E+01  -1.46454   3.66136
    3550.00   4.550228     0.6242E+01  -1.47298   3.68246
    3570.00   4.552669     0.6112E+01  -1.48212   3.70530
    3590.00   4.555095     0.5989E+01  -1.49093   3.72731
    3610.00   4.557508     0.5877E+01  -1.49915   3.74788
    3630.00   4.559907     0.5758E+01  -1.50804   3.77009
    3650.00   4.562293     0.5632E+01  -1.51759   3.79397
    3670.00   4.564666     0.5517E+01  -1.52655   3.81636
    3690.00   4.567026     0.5394E+01  -1.53635   3.84087
    3710.00   4.569374     0.5283E+01  -1.54540   3.86349
    3730.00   4.571709     0.5194E+01  -1.55281   3.88203
    3750.00   4.574031     0.5071E+01  -1.56319   3.90798
    3770.00   4.576342     0.4994E+01  -1.56986   3.92465
    3790.00   4.578639     0.4894E+01  -1.57863   3.94657
    3810.00   4.580925     0.4803E+01  -1.58672   3.96681
    3830.00   4.583199     0.4717E+01  -1.59462   3.98656
    3850.00   4.585461     0.4628E+01  -1.60284   4.00711
    3870.00   4.587711     0.4528E+01  -1.61237   4.03093
    3890.00   4.589950     0.4447E+01  -1.62021   4.05052
    3910.00   4.592176     0.4367E+01  -1.62814   4.07035
    3930.00   4.594393     0.4285E+01  -1.63637   4.09094
    3950.00   4.596597     0.4193E+01  -1.64580   4.11449
    3970.00   4.598790     0.4118E+01  -1.65354   4.13386
    3990.00   4.600973     0.4026E+01  -1.66335   4.15838
    4010.00   4.603145     0.3962E+01  -1.67039   4.17598
    4030.00   4.605305     0.3895E+01  -1.67772   4.19431
    4050.00   4.607455     0.3815E+01  -1.68682   4.21705
    4070.00   4.609594     0.3751E+01  -1.69415   4.23538
    4090.00   4.611723     0.3684E+01  -1.70201   4.25502
    4110.00   4.613842     0.3620E+01  -1.70959   4.27398
    4130.00   4.615950     0.3559E+01  -1.71693   4.29232
    4150.00   4.618048     0.3494E+01  -1.72499   4.31248
    4170.00   4.620136     0.3432E+01  -1.73268   4.33171
    4190.00   4.622214     0.3370E+01  -1.74067   4.35167
    4210.00   4.624282     0.3307E+01  -1.74885   4.37212
    4230.00   4.626340     0.3263E+01  -1.75465   4.38663
    4250.00   4.628389     0.3201E+01  -1.76300   4.40749
    4270.00   4.630428     0.3151E+01  -1.76976   4.42440
    4290.00   4.632457     0.3003E+01  -1.79076   4.47690
    4310.00   4.634478     0.2853E+01  -1.81302   4.53255
    4330.00   4.636488     0.2845E+01  -1.81413   4.53532
    4350.00   4.638489     0.2719E+01  -1.83394   4.58486
    4370.00   4.640481     0.2643E+01  -1.84614   4.61535
    4390.00   4.642465     0.2587E+01  -1.85540   4.63851
    4410.00   4.644439     0.2483E+01  -1.87331   4.68328
    4430.00   4.646404     0.2446E+01  -1.87979   4.69948
    4450.00   4.648360     0.2401E+01  -1.88794   4.71985
    4470.00   4.650308     0.2315E+01  -1.90374   4.75935
    4490.00   4.652246     0.2312E+01  -1.90420   4.76051
    4510.00   4.654177     0.2253E+01  -1.91553   4.78884
    4530.00   4.656098     0.2193E+01  -1.92716   4.81790
    4550.00   4.658011     0.2183E+01  -1.92928   4.82321
    4570.00   4.659916     0.2156E+01  -1.93461   4.83652
    4590.00   4.661813     0.2086E+01  -1.94887   4.87217
    4610.00   4.663701     0.2090E+01  -1.94814   4.87035
    4630.00   4.665581     0.2049E+01  -1.95676   4.89191
    4650.00   4.667453     0.2028E+01  -1.96129   4.90322
    4670.00   4.669317     0.2014E+01  -1.96413   4.91033
    4690.00   4.671173     0.1976E+01  -1.97248   4.93119
    4710.00   4.673021     0.1942E+01  -1.97995   4.94987
    4730.00   4.674861     0.1944E+01  -1.97963   4.94909
    4750.00   4.676694     0.1900E+01  -1.98948   4.97370
    4770.00   4.678518     0.1875E+01  -1.99517   4.98793
    4790.00   4.680336     0.1857E+01  -1.99941   4.99852
    4810.00   4.682145     0.1812E+01  -2.01016   5.02541
    4830.00   4.683947     0.1816E+01  -2.00914   5.02286
    4850.00   4.685741     0.1783E+01  -2.01721   5.04301
    4870.00   4.687529     0.1748E+01  -2.02572   5.06431
    4890.00   4.689309     0.1725E+01  -2.03150   5.07875
    4910.00   4.691082     0.1704E+01  -2.03684   5.09211
    4930.00   4.692847     0.1677E+01  -2.04378   5.10944
    4950.00   4.694605     0.1649E+01  -2.05105   5.12762
    4970.00   4.696356     0.1637E+01  -2.05433   5.13583
    4990.00   4.698101     0.1613E+01  -2.06056   5.15139
    5010.00   4.699838     0.1593E+01  -2.06599   5.16497
    5030.00   4.701568     0.1572E+01  -2.07170   5.17924
    5050.00   4.703291     0.1539E+01  -2.08102   5.20255
    5070.00   4.705008     0.1527E+01  -2.08457   5.21143
    5090.00   4.706717     0.1508E+01  -2.08988   5.22469
    5110.00   4.708421     0.1481E+01  -2.09776   5.24441
    5130.00   4.710117     0.1470E+01  -2.10085   5.25212
    5150.00   4.711807     0.1445E+01  -2.10853   5.27132
    5170.00   4.713490     0.1438E+01  -2.11039   5.27597
    5190.00   4.715167     0.1412E+01  -2.11854   5.29635
    5210.00   4.716838     0.1397E+01  -2.12321   5.30802
    5230.00   4.718502     0.1373E+01  -2.13058   5.32645
    5250.00   4.720160     0.1362E+01  -2.13411   5.33527
    5270.00   4.721810     0.1355E+01  -2.13648   5.34120
    5290.00   4.723455     0.1324E+01  -2.14644   5.36611
    5310.00   4.725095     0.1307E+01  -2.15188   5.37971
    5330.00   4.726727     0.1296E+01  -2.15583   5.38958
    5350.00   4.728354     0.1280E+01  -2.16100   5.40250
    5370.00   4.729974     0.1266E+01  -2.16589   5.41472
    5390.00   4.731589     0.1252E+01  -2.17082   5.42706
    5410.00   4.733197     0.1237E+01  -2.17607   5.44018
    5430.00   4.734800     0.1214E+01  -2.18394   5.45984
    5450.00   4.736397     0.1208E+01  -2.18619   5.46547
    5470.00   4.737988     0.1189E+01  -2.19325   5.48311
    5490.00   4.739573     0.1176E+01  -2.19789   5.49472
    5510.00   4.741152     0.1160E+01  -2.20368   5.50919
    5530.00   4.742725     0.1161E+01  -2.20344   5.50860
    5550.00   4.744293     0.1132E+01  -2.21456   5.53641
    5570.00   4.745855     0.1128E+01  -2.21579   5.53947
    5590.00   4.747412     0.1110E+01  -2.22308   5.55770
    5610.00   4.748963     0.1101E+01  -2.22659   5.56648
    5630.00   4.750508     0.1081E+01  -2.23431   5.58578
    5650.00   4.752048     0.1075E+01  -2.23676   5.59190
    5670.00   4.753583     0.1062E+01  -2.24211   5.60528
    5690.00   4.755112     0.1044E+01  -2.24970   5.62424
    5710.00   4.756636     0.1039E+01  -2.25181   5.62953
    5730.00   4.758155     0.1026E+01  -2.25732   5.64329
    5750.00   4.759668     0.1013E+01  -2.26251   5.65627
    5770.00   4.761176     0.1000E+01  -2.26827   5.67069
    5790.00   4.762679     0.9924E+00  -2.27159   5.67896
    5810.00   4.764176     0.9773E+00  -2.27824   5.69560
    5830.00   4.765669     0.9668E+00  -2.28295   5.70737
    5850.00   4.767156     0.9560E+00  -2.28780   5.71951
    5870.00   4.768638     0.9415E+00  -2.29443   5.73608
    5890.00   4.770115     0.9315E+00  -2.29907   5.74768
    5910.00   4.771587     0.9214E+00  -2.30381   5.75954
    5930.00   4.773055     0.9117E+00  -2.30843   5.77108
    5950.00   4.774517     0.8991E+00  -2.31446   5.78616
    5970.00   4.775974     0.8912E+00  -2.31829   5.79573
    5990.00   4.777427     0.8807E+00  -2.32342   5.80856
    6010.00   4.778874     0.8705E+00  -2.32851   5.82127
    6030.00   4.780317     0.8602E+00  -2.33366   5.83416
    6050.00   4.781755     0.8480E+00  -2.33987   5.84968
    6070.00   4.783189     0.8386E+00  -2.34474   5.86184
    6090.00   4.784617     0.8287E+00  -2.34986   5.87465
    6110.00   4.786041     0.8181E+00  -2.35548   5.88870
    6130.00   4.787460     0.8101E+00  -2.35974   5.89934
    6150.00   4.788875     0.8014E+00  -2.36442   5.91104
    6170.00   4.790285     0.7934E+00  -2.36879   5.92197
    6190.00   4.791691     0.7840E+00  -2.37399   5.93496
    6210.00   4.793092     0.7757E+00  -2.37860   5.94650
    6230.00   4.794488     0.7653E+00  -2.38442   5.96105
    6250.00   4.795880     0.7553E+00  -2.39013   5.97533
    6270.00   4.797267     0.7468E+00  -2.39508   5.98769
    6290.00   4.798651     0.7388E+00  -2.39972   5.99930
    6310.00   4.800029     0.7300E+00  -2.40494   6.01236
    6330.00   4.801404     0.7234E+00  -2.40889   6.02221
    6350.00   4.802773     0.7142E+00  -2.41447   6.03617
    6370.00   4.804139     0.7077E+00  -2.41842   6.04605
    6390.00   4.805501     0.6980E+00  -2.42442   6.06106
    6420.00   4.807535     0.6868E+00  -2.43145   6.07862
    6460.00   4.810232     0.6709E+00  -2.44165   6.10412
    6500.00   4.812913     0.6561E+00  -2.45134   6.12834
    6540.00   4.815578     0.6413E+00  -2.46119   6.15297
    6580.00   4.818226     0.6276E+00  -2.47057   6.17641
    6620.00   4.820858     0.6134E+00  -2.48056   6.20140
    6660.00   4.823474     0.6000E+00  -2.49016   6.22540
    6700.00   4.826075     0.5870E+00  -2.49967   6.24918
    6740.00   4.828660     0.5738E+00  -2.50953   6.27383
    6780.00   4.831230     0.5614E+00  -2.51902   6.29755
    6820.00   4.833784     0.5491E+00  -2.52862   6.32154
    6860.00   4.836324     0.5375E+00  -2.53789   6.34473
    6900.00   4.838849     0.5257E+00  -2.54751   6.36877
    6940.00   4.841359     0.5145E+00  -2.55688   6.39221
    6980.00   4.843855     0.5036E+00  -2.56620   6.41550
    7020.00   4.846337     0.4927E+00  -2.57572   6.43930
    7060.00   4.848804     0.4825E+00  -2.58480   6.46201
    7100.00   4.851258     0.4723E+00  -2.59410   6.48525
    7140.00   4.853698     0.4624E+00  -2.60323   6.50808
    7180.00   4.856124     0.4527E+00  -2.61246   6.53116
    7220.00   4.858537     0.4433E+00  -2.62154   6.55385
    7260.00   4.860937     0.4341E+00  -2.63068   6.57671
    7300.00   4.863323     0.4252E+00  -2.63966   6.59916
    7340.00   4.865696     0.4164E+00  -2.64876   6.62191
    7380.00   4.868056     0.4080E+00  -2.65762   6.64404
    7420.00   4.870404     0.3995E+00  -2.66678   6.66696
    7460.00   4.872739     0.3913E+00  -2.67578   6.68945
    7500.00   4.875061     0.3835E+00  -2.68447   6.71119
    7540.00   4.877371     0.3758E+00  -2.69330   6.73326
    7580.00   4.879669     0.3686E+00  -2.70176   6.75440
    7620.00   4.881955     0.3613E+00  -2.71047   6.77617
    7660.00   4.884229     0.3541E+00  -2.71912   6.79779
    7700.00   4.886491     0.3471E+00  -2.72781   6.81953
    7740.00   4.888741     0.3404E+00  -2.73632   6.84080
    7780.00   4.890980     0.3338E+00  -2.74483   6.86208
    7820.00   4.893207     0.3273E+00  -2.75335   6.88337
    7860.00   4.895422     0.3210E+00  -2.76179   6.90447
    7900.00   4.897627     0.3148E+00  -2.77021   6.92552
    7940.00   4.899820     0.3088E+00  -2.77859   6.94649
    7980.00   4.902003     0.3030E+00  -2.78690   6.96725
    8020.00   4.904174     0.2971E+00  -2.79534   6.98835
    8060.00   4.906335     0.2915E+00  -2.80360   7.00899
    8100.00   4.908485     0.2861E+00  -2.81171   7.02928
    8140.00   4.910625     0.2807E+00  -2.81998   7.04996
    8180.00   4.912753     0.2756E+00  -2.82803   7.07006
    8220.00   4.914872     0.2705E+00  -2.83611   7.09027
    8260.00   4.916980     0.2655E+00  -2.84421   7.11052
    8300.00   4.919078     0.2606E+00  -2.85222   7.13055
    8340.00   4.921166     0.2558E+00  -2.86034   7.15085
    8380.00   4.923244     0.2512E+00  -2.86831   7.17078
    8420.00   4.925312     0.2467E+00  -2.87610   7.19025
    8460.00   4.927370     0.2422E+00  -2.88403   7.21008
    8500.00   4.929419     0.2379E+00  -2.89187   7.22968
    8540.00   4.931458     0.2337E+00  -2.89966   7.24916
    8580.00   4.933487     0.2295E+00  -2.90743   7.26857
    8620.00   4.935507     0.2255E+00  -2.91516   7.28790
    8660.00   4.937518     0.2215E+00  -2.92284   7.30709
    8700.00   4.939519     0.2176E+00  -2.93052   7.32630
    8740.00   4.941511     0.2138E+00  -2.93817   7.34542
    8780.00   4.943495     0.2101E+00  -2.94580   7.36449
    8820.00   4.945469     0.2065E+00  -2.95345   7.38363
    8860.00   4.947433     0.2029E+00  -2.96097   7.40244
    8900.00   4.949390     0.1994E+00  -2.96853   7.42133
    8940.00   4.951338     0.1960E+00  -2.97592   7.43981
    8980.00   4.953277     0.1926E+00  -2.98352   7.45880
    9020.00   4.955207     0.1894E+00  -2.99079   7.47697
    9060.00   4.957129     0.1863E+00  -2.99813   7.49532
    9100.00   4.959042     0.1830E+00  -3.00574   7.51435
    9140.00   4.960946     0.1800E+00  -3.01290   7.53226
    9180.00   4.962843     0.1771E+00  -3.02017   7.55043
    9220.00   4.964731     0.1742E+00  -3.02734   7.56835
    9260.00   4.966611     0.1713E+00  -3.03459   7.58648
    9300.00   4.968483     0.1685E+00  -3.04178   7.60445
    9340.00   4.970347     0.1657E+00  -3.04898   7.62245
    9380.00   4.972203     0.1630E+00  -3.05609   7.64023
    9420.00   4.974051     0.1603E+00  -3.06321   7.65803
    9460.00   4.975891     0.1577E+00  -3.07033   7.67582
    9500.00   4.977724     0.1552E+00  -3.07738   7.69344
    9540.00   4.979548     0.1527E+00  -3.08440   7.71100
    9580.00   4.981365     0.1503E+00  -3.09138   7.72845
    9620.00   4.983175     0.1479E+00  -3.09837   7.74593
    9660.00   4.984977     0.1455E+00  -3.10528   7.76320
    9700.00   4.986772     0.1432E+00  -3.11219   7.78048
    9740.00   4.988559     0.1409E+00  -3.11933   7.79831
    9780.00   4.990339     0.1388E+00  -3.12603   7.81507
    9820.00   4.992111     0.1366E+00  -3.13280   7.83199
    9860.00   4.993877     0.1345E+00  -3.13959   7.84898
    9900.00   4.995635     0.1324E+00  -3.14636   7.86589
    9940.00   4.997386     0.1304E+00  -3.15315   7.88287
    9980.00   4.999130     0.1284E+00  -3.15987   7.89967
   10020.00   5.000868     0.1264E+00  -3.16657   7.91642
   20000.00   5.301030     0.8523E-02  -4.33766  10.84415
   40000.00   5.602060     0.5485E-03  -5.52910  13.82275
   60000.00   5.778151     0.1091E-03  -6.23058  15.57645
   80000.00   5.903090     0.3457E-04  -6.72964  16.82409
  100000.00   6.000000     0.1416E-04  -7.11733  17.79333
  120000.00   6.079181     0.6821E-05  -7.43446  18.58614
  140000.00   6.146128     0.3677E-05  -7.70275  19.25688
  160000.00   6.204120     0.2153E-05  -7.93530  19.83824
