age =   16.0    [Fe/H] =   -0.25

wavele(nm) log wave(A)   Hlam       log(Hlam/Hlam(V))  Hlam(mag(V)) 
      89.50   2.951823     0.8132E-13 -15.21158  38.02894
      90.50   2.956649     0.1647E-12 -14.90522  37.26306
      91.50   2.961421     0.2579E-12 -14.71039  36.77599
      92.50   2.966142     0.2185E-10 -12.78242  31.95605
      93.50   2.970812     0.3026E-10 -12.64092  31.60231
      94.50   2.975432     0.4379E-10 -12.48040  31.20101
      95.50   2.980003     0.6596E-10 -12.30251  30.75628
      96.50   2.984527     0.9653E-10 -12.13712  30.34281
      97.50   2.989005     0.1279E-09 -12.01502  30.03755
      98.50   2.993436     0.1821E-09 -11.86145  29.65364
      99.50   2.997823     0.2496E-09 -11.72457  29.31143
     100.50   3.002166     0.3670E-09 -11.55710  28.89275
     101.50   3.006466     0.4973E-09 -11.42518  28.56295
     102.50   3.010724     0.5619E-09 -11.37213  28.43033
     103.50   3.014940     0.9389E-09 -11.14917  27.87291
     104.50   3.019116     0.1302E-08 -11.00703  27.51758
     105.50   3.023252     0.1644E-08 -10.90594  27.26484
     106.50   3.027350     0.2238E-08 -10.77186  26.92964
     107.50   3.031409     0.3016E-08 -10.64230  26.60574
     108.50   3.035430     0.4077E-08 -10.51141  26.27852
     109.50   3.039414     0.5095E-08 -10.41465  26.03663
     110.50   3.043362     0.2504E-07  -9.72314  24.30784
     111.50   3.047275     0.4373E-07  -9.48099  23.70249
     112.50   3.051152     0.6621E-07  -9.30087  23.25218
     113.50   3.054996     0.1013E-06  -9.11606  22.79015
     114.50   3.058805     0.1349E-06  -8.99179  22.47947
     115.50   3.062582     0.1572E-06  -8.92525  22.31313
     116.50   3.066326     0.2088E-06  -8.80214  22.00535
     117.50   3.070038     0.2676E-06  -8.69429  21.73573
     118.50   3.073718     0.2830E-06  -8.66997  21.67492
     119.50   3.077368     0.2248E-06  -8.76997  21.92492
     120.50   3.080987     0.2111E-06  -8.79735  21.99339
     121.50   3.084576     0.4694E-07  -9.45025  23.62562
     122.50   3.088136     0.2828E-06  -8.67027  21.67567
     123.50   3.091667     0.6738E-06  -8.29323  20.73309
     124.50   3.095169     0.1051E-05  -8.10016  20.25040
     125.50   3.098644     0.1360E-05  -7.98817  19.97043
     126.50   3.102091     0.1515E-05  -7.94141  19.85352
     127.50   3.105510     0.1918E-05  -7.83883  19.59708
     128.50   3.108903     0.2273E-05  -7.76524  19.41309
     129.50   3.112270     0.2757E-05  -7.68134  19.20334
     130.50   3.115611     0.2985E-05  -7.64691  19.11728
     131.50   3.118926     0.3742E-05  -7.54872  18.87181
     132.50   3.122216     0.3989E-05  -7.52088  18.80220
     133.50   3.125481     0.4451E-05  -7.47336  18.68339
     134.50   3.128722     0.5266E-05  -7.40030  18.50076
     135.50   3.131939     0.6101E-05  -7.33639  18.34099
     136.50   3.135133     0.6617E-05  -7.30111  18.25278
     137.50   3.138303     0.7156E-05  -7.26713  18.16782
     138.50   3.141450     0.7872E-05  -7.22570  18.06424
     139.50   3.144574     0.8916E-05  -7.17161  17.92901
     140.50   3.147676     0.1072E-04  -7.09146  17.72865
     141.50   3.150756     0.1224E-04  -7.03383  17.58457
     142.50   3.153815     0.1399E-04  -6.97593  17.43982
     143.50   3.156852     0.1654E-04  -6.90318  17.25794
     144.20   3.158965     0.2154E-04  -6.78851  16.97128
     144.70   3.160469     0.1924E-04  -6.83753  17.09383
     145.50   3.162863     0.2273E-04  -6.76527  16.91317
     146.50   3.165838     0.2879E-04  -6.66249  16.65621
     147.50   3.168792     0.3286E-04  -6.60508  16.51269
     148.50   3.171726     0.3536E-04  -6.57327  16.43316
     149.50   3.174641     0.4645E-04  -6.45483  16.13708
     150.50   3.177536     0.5649E-04  -6.36983  15.92458
     151.20   3.179552     0.4293E-04  -6.48899  16.22247
     151.70   3.180986     0.5464E-04  -6.38424  15.96061
     152.50   3.183270     0.1229E-03  -6.03225  15.08062
     153.50   3.186108     0.1970E-03  -5.82735  14.56837
     154.50   3.188928     0.1633E-03  -5.90876  14.77189
     155.50   3.191730     0.2612E-03  -5.70487  14.26219
     156.50   3.194514     0.2474E-03  -5.72847  14.32117
     157.50   3.197281     0.4433E-03  -5.47505  13.68763
     158.50   3.200029     0.5358E-03  -5.39275  13.48188
     159.50   3.202761     0.6251E-03  -5.32582  13.31455
     160.50   3.205475     0.6700E-03  -5.29574  13.23934
     161.50   3.208173     0.7514E-03  -5.24590  13.11475
     162.50   3.210853     0.8351E-03  -5.20006  13.00016
     163.50   3.213518     0.9844E-03  -5.12861  12.82152
     164.50   3.216166     0.1381E-02  -4.98163  12.45408
     165.50   3.218798     0.9026E-03  -5.16630  12.91576
     166.50   3.221414     0.1592E-02  -4.91982  12.29955
     167.20   3.223236     0.1144E-02  -5.06318  12.65796
     167.70   3.224533     0.4113E-02  -4.50761  11.26903
     168.50   3.226600     0.4478E-02  -4.47069  11.17673
     169.50   3.229170     0.5402E-02  -4.38924  10.97309
     170.50   3.231725     0.6096E-02  -4.33677  10.84194
     171.50   3.234264     0.6822E-02  -4.28789  10.71973
     172.50   3.236789     0.8580E-02  -4.18831  10.47079
     173.50   3.239300     0.1105E-01  -4.07858  10.19645
     174.50   3.241796     0.1478E-01  -3.95217   9.88042
     175.50   3.244277     0.2152E-01  -3.78893   9.47232
     176.50   3.246745     0.1766E-01  -3.87481   9.68701
     177.50   3.249198     0.2106E-01  -3.79838   9.49596
     178.50   3.251638     0.2832E-01  -3.66965   9.17413
     179.50   3.254065     0.3837E-01  -3.53779   8.84447
     180.50   3.256477     0.4021E-01  -3.51745   8.79361
     181.50   3.258877     0.3398E-01  -3.59053   8.97634
     182.50   3.261263     0.4389E-01  -3.47940   8.69850
     183.50   3.263636     0.4525E-01  -3.46615   8.66538
     184.50   3.265996     0.2765E-01  -3.68013   9.20032
     185.50   3.268344     0.5214E-01  -3.40460   8.51150
     186.50   3.270679     0.6706E-01  -3.29531   8.23828
     187.50   3.273001     0.6988E-01  -3.27743   8.19358
     188.50   3.275311     0.7517E-01  -3.24574   8.11434
     189.50   3.277609     0.1015E+00  -3.11528   7.78821
     190.50   3.279895     0.9600E-01  -3.13952   7.84881
     191.50   3.282169     0.1089E+00  -3.08461   7.71153
     192.50   3.284431     0.9584E-01  -3.14022   7.85056
     193.50   3.286681     0.5468E-01  -3.38395   8.45986
     194.50   3.288920     0.1371E+00  -2.98468   7.46171
     195.50   3.291147     0.1437E+00  -2.96440   7.41101
     196.70   3.293804     0.1960E+00  -2.82959   7.07396
     197.60   3.295787     0.1685E+00  -2.89518   7.23796
     198.40   3.297542     0.2152E+00  -2.78904   6.97261
     199.50   3.299943     0.2355E+00  -2.74971   6.87429
     200.50   3.302114     0.2195E+00  -2.78043   6.95108
     201.50   3.304275     0.2424E+00  -2.73727   6.84317
     202.50   3.306425     0.1740E+00  -2.88118   7.20294
     203.50   3.308564     0.2715E+00  -2.68798   6.71996
     204.50   3.310693     0.3200E+00  -2.61660   6.54150
     205.50   3.312812     0.3127E+00  -2.62672   6.56679
     206.50   3.314920     0.3044E+00  -2.63837   6.59592
     207.40   3.316809     0.3400E+00  -2.59027   6.47568
     207.80   3.317646     0.9901E+00  -2.12612   5.31531
     208.50   3.319106     0.1311E+01  -2.00408   5.01021
     209.50   3.321184     0.1177E+01  -2.05098   5.12744
     210.50   3.323252     0.1139E+01  -2.06507   5.16268
     211.50   3.325310     0.1389E+01  -1.97902   4.94755
     212.50   3.327359     0.1172E+01  -2.05300   5.13249
     213.50   3.329398     0.1159E+01  -2.05771   5.14428
     214.50   3.331427     0.1583E+01  -1.92229   4.80573
     215.50   3.333447     0.1497E+01  -1.94670   4.86675
     216.50   3.335458     0.1236E+01  -2.02972   5.07430
     217.50   3.337459     0.1237E+01  -2.02933   5.07334
     218.50   3.339452     0.1807E+01  -1.86485   4.66211
     219.50   3.341434     0.1724E+01  -1.88533   4.71332
     220.50   3.343409     0.1704E+01  -1.89032   4.72581
     221.50   3.345374     0.1218E+01  -2.03597   5.08992
     222.50   3.347330     0.1618E+01  -1.91269   4.78172
     223.50   3.349277     0.2330E+01  -1.75436   4.38590
     224.50   3.351216     0.2208E+01  -1.77780   4.44450
     225.50   3.353147     0.1536E+01  -1.93535   4.83837
     226.50   3.355068     0.1306E+01  -2.00568   5.01419
     227.50   3.356982     0.1419E+01  -1.96987   4.92468
     228.50   3.358886     0.2286E+01  -1.76277   4.40692
     229.50   3.360783     0.1754E+01  -1.87783   4.69458
     230.50   3.362671     0.2312E+01  -1.75782   4.39455
     231.50   3.364551     0.1887E+01  -1.84612   4.61530
     232.50   3.366423     0.1586E+01  -1.92149   4.80373
     233.50   3.368287     0.1331E+01  -1.99774   4.99436
     234.50   3.370143     0.7929E+00  -2.22257   5.55641
     235.50   3.371991     0.1832E+01  -1.85898   4.64744
     236.50   3.373831     0.9350E+00  -2.15098   5.37746
     237.50   3.375664     0.1311E+01  -2.00410   5.01024
     238.50   3.377488     0.6897E+00  -2.28313   5.70782
     239.50   3.379306     0.9234E+00  -2.15641   5.39103
     240.50   3.381115     0.9598E+00  -2.13959   5.34898
     241.50   3.382917     0.1171E+01  -2.05314   5.13286
     242.50   3.384712     0.2382E+01  -1.74492   4.36230
     243.50   3.386499     0.2421E+01  -1.73784   4.34459
     244.50   3.388279     0.3038E+01  -1.63918   4.09795
     245.50   3.390052     0.3297E+01  -1.60372   4.00930
     246.50   3.391817     0.2617E+01  -1.70401   4.26002
     247.50   3.393575     0.2198E+01  -1.77973   4.44931
     248.50   3.395326     0.9110E+00  -2.16227   5.40567
     249.50   3.397071     0.1443E+01  -1.96263   4.90657
     250.50   3.398808     0.2539E+01  -1.71709   4.29272
     251.30   3.400192     0.8773E+00  -2.17865   5.44661
     251.80   3.401056     0.5912E+00  -2.35006   5.87514
     252.50   3.402261     0.7209E+00  -2.26391   5.65978
     253.50   3.403978     0.1722E+01  -1.88581   4.71451
     254.50   3.405688     0.1814E+01  -1.86325   4.65813
     255.50   3.407391     0.4168E+01  -1.50186   3.75464
     256.50   3.409087     0.2828E+01  -1.67031   4.17579
     257.50   3.410777     0.3939E+01  -1.52636   3.81590
     258.50   3.412461     0.3355E+01  -1.59603   3.99008
     259.50   3.414137     0.2947E+01  -1.65243   4.13108
     260.50   3.415808     0.2433E+01  -1.73558   4.33894
     261.50   3.417472     0.2135E+01  -1.79244   4.48111
     262.50   3.419129     0.3152E+01  -1.62320   4.05799
     263.50   3.420781     0.6509E+01  -1.30827   3.27067
     264.50   3.422426     0.8938E+01  -1.17052   2.92631
     265.50   3.424065     0.1349E+02  -0.99187   2.47968
     266.50   3.425697     0.8099E+01  -1.21336   3.03340
     267.50   3.427324     0.9221E+01  -1.15701   2.89253
     268.50   3.428944     0.1119E+02  -1.07301   2.68252
     269.50   3.430559     0.7377E+01  -1.25390   3.13475
     270.50   3.432167     0.9622E+01  -1.13853   2.84632
     271.50   3.433770     0.6436E+01  -1.31314   3.28285
     272.50   3.435366     0.4438E+01  -1.47458   3.68645
     273.50   3.436957     0.6262E+01  -1.32509   3.31273
     274.50   3.438542     0.3350E+01  -1.59676   3.99190
     275.50   3.440122     0.5031E+01  -1.42017   3.55043
     276.50   3.441695     0.7042E+01  -1.27410   3.18526
     277.50   3.443263     0.7398E+01  -1.25268   3.13170
     278.50   3.444825     0.3899E+01  -1.53081   3.82701
     279.50   3.446382     0.1569E+01  -1.92620   4.81551
     280.50   3.447933     0.1963E+01  -1.82878   4.57195
     281.50   3.449478     0.6211E+01  -1.32860   3.32150
     282.50   3.451018     0.9491E+01  -1.14450   2.86124
     283.50   3.452553     0.8426E+01  -1.19615   2.99037
     284.50   3.454082     0.5017E+01  -1.42136   3.55339
     285.50   3.455606     0.2363E+01  -1.74824   4.37059
     286.50   3.457125     0.7773E+01  -1.23120   3.07801
     287.50   3.458638     0.1227E+02  -1.03307   2.58267
     288.50   3.460146     0.1126E+02  -1.07019   2.67546
     289.50   3.461648     0.1497E+02  -0.94652   2.36631
     291.00   3.463893     0.2159E+02  -0.78763   1.96908
     293.00   3.466868     0.1949E+02  -0.83208   2.08019
     295.00   3.469822     0.1841E+02  -0.85671   2.14177
     297.00   3.472756     0.1922E+02  -0.83796   2.09490
     299.00   3.475671     0.2021E+02  -0.81629   2.04072
     301.00   3.478566     0.2014E+02  -0.81762   2.04406
     303.00   3.481443     0.2212E+02  -0.77692   1.94230
     305.00   3.484300     0.2319E+02  -0.75654   1.89135
     307.00   3.487138     0.2396E+02  -0.74229   1.85573
     309.00   3.489959     0.2157E+02  -0.78794   1.96986
     311.00   3.492760     0.2611E+02  -0.70493   1.76232
     313.00   3.495544     0.2342E+02  -0.75223   1.88058
     315.00   3.498311     0.2327E+02  -0.75503   1.88758
     317.00   3.501059     0.2673E+02  -0.69483   1.73708
     319.00   3.503791     0.2305E+02  -0.75903   1.89758
     321.00   3.506505     0.2567E+02  -0.71237   1.78094
     323.00   3.509202     0.2198E+02  -0.77971   1.94927
     325.00   3.511883     0.3211E+02  -0.61514   1.53784
     327.00   3.514548     0.3772E+02  -0.54519   1.36297
     329.00   3.517196     0.3693E+02  -0.55437   1.38593
     331.00   3.519828     0.3371E+02  -0.59399   1.48497
     333.00   3.522444     0.3501E+02  -0.57755   1.44388
     335.00   3.525045     0.3370E+02  -0.59417   1.48543
     337.00   3.527630     0.2360E+02  -0.74879   1.87198
     339.00   3.530200     0.2822E+02  -0.67130   1.67826
     341.00   3.532754     0.2957E+02  -0.65097   1.62744
     343.00   3.535294     0.3247E+02  -0.61025   1.52562
     345.00   3.537819     0.3524E+02  -0.57477   1.43693
     347.00   3.540329     0.3696E+02  -0.55403   1.38508
     349.00   3.542825     0.4176E+02  -0.50103   1.25257
     351.00   3.545307     0.4469E+02  -0.47153   1.17883
     353.00   3.547775     0.3988E+02  -0.52102   1.30256
     355.00   3.550228     0.4578E+02  -0.46110   1.15276
     357.00   3.552668     0.3270E+02  -0.60726   1.51815
     359.00   3.555094     0.3365E+02  -0.59486   1.48714
     361.00   3.557507     0.4248E+02  -0.49363   1.23408
     363.00   3.559907     0.4374E+02  -0.48090   1.20225
     364.00   3.561101     0.4491E+02  -0.46947   1.17367
     365.00   3.562293     0.4851E+02  -0.43593   1.08983
     367.00   3.564666     0.5229E+02  -0.40340   1.00850
     369.00   3.567026     0.4677E+02  -0.45179   1.12949
     371.00   3.569374     0.4902E+02  -0.43138   1.07845
     373.00   3.571709     0.3109E+02  -0.62918   1.57296
     375.00   3.574031     0.3588E+02  -0.56696   1.41740
     377.00   3.576341     0.4810E+02  -0.43960   1.09900
     379.00   3.578639     0.4949E+02  -0.42730   1.06825
     381.00   3.580925     0.4614E+02  -0.45769   1.14423
     383.00   3.583199     0.2494E+02  -0.72482   1.81205
     385.00   3.585461     0.3553E+02  -0.57121   1.42802
     387.00   3.587711     0.3469E+02  -0.58164   1.45410
     389.00   3.589950     0.4439E+02  -0.47453   1.18633
     391.00   3.592177     0.5436E+02  -0.38650   0.96626
     393.00   3.594393     0.2578E+02  -0.71053   1.77633
     395.00   3.596597     0.4763E+02  -0.44387   1.10968
     397.00   3.598790     0.3263E+02  -0.60813   1.52031
     399.00   3.600973     0.7184E+02  -0.26542   0.66355
     401.00   3.603144     0.7914E+02  -0.22341   0.55852
     403.00   3.605305     0.7770E+02  -0.23137   0.57842
     405.00   3.607455     0.7462E+02  -0.24894   0.62235
     407.00   3.609594     0.7039E+02  -0.27430   0.68576
     409.00   3.611723     0.8742E+02  -0.18019   0.45047
     411.00   3.613842     0.8210E+02  -0.20745   0.51862
     413.00   3.615950     0.8007E+02  -0.21834   0.54586
     415.00   3.618048     0.7792E+02  -0.23015   0.57537
     417.00   3.620136     0.7971E+02  -0.22026   0.55065
     419.00   3.622214     0.7717E+02  -0.23433   0.58582
     421.00   3.624282     0.7781E+02  -0.23077   0.57691
     423.00   3.626340     0.7325E+02  -0.25696   0.64240
     425.00   3.628389     0.7775E+02  -0.23109   0.57772
     427.00   3.630428     0.7301E+02  -0.25838   0.64595
     429.00   3.632457     0.6792E+02  -0.28978   0.72444
     431.00   3.634477     0.5807E+02  -0.35782   0.89455
     433.00   3.636488     0.8804E+02  -0.17710   0.44275
     435.00   3.638489     0.8749E+02  -0.17984   0.44961
     437.00   3.640481     0.9434E+02  -0.14707   0.36768
     439.00   3.642465     0.8377E+02  -0.19869   0.49674
     441.00   3.644439     0.8987E+02  -0.16817   0.42042
     443.00   3.646404     0.9846E+02  -0.12854   0.32135
     445.00   3.648360     0.9901E+02  -0.12611   0.31526
     447.00   3.650307     0.1061E+03  -0.09590   0.23974
     449.00   3.652246     0.1094E+03  -0.08283   0.20706
     451.00   3.654176     0.1237E+03  -0.02939   0.07347
     453.00   3.656098     0.1088E+03  -0.08508   0.21271
     455.00   3.658011     0.1146E+03  -0.06274   0.15684
     457.00   3.659916     0.1237E+03  -0.02942   0.07354
     459.00   3.661813     0.1164E+03  -0.05585   0.13962
     461.00   3.663701     0.1205E+03  -0.04096   0.10241
     463.00   3.665581     0.1180E+03  -0.04976   0.12440
     465.00   3.667453     0.1193E+03  -0.04507   0.11269
     467.00   3.669317     0.1245E+03  -0.02648   0.06620
     469.00   3.671173     0.1224E+03  -0.03412   0.08531
     471.00   3.673021     0.1198E+03  -0.04341   0.10852
     473.00   3.674861     0.1233E+03  -0.03080   0.07700
     475.00   3.676694     0.1261E+03  -0.02109   0.05274
     477.00   3.678518     0.1231E+03  -0.03139   0.07848
     479.00   3.680336     0.1242E+03  -0.02754   0.06886
     481.00   3.682145     0.1251E+03  -0.02450   0.06125
     483.00   3.683947     0.1285E+03  -0.01286   0.03215
     485.00   3.685742     0.1237E+03  -0.02936   0.07340
     487.00   3.687529     0.1143E+03  -0.06382   0.15955
     489.00   3.689309     0.1256E+03  -0.02296   0.05741
     491.00   3.691082     0.1265E+03  -0.01978   0.04945
     493.00   3.692847     0.1243E+03  -0.02731   0.06828
     495.00   3.694605     0.1288E+03  -0.01204   0.03009
     497.00   3.696356     0.1247E+03  -0.02586   0.06465
     499.00   3.698101     0.1165E+03  -0.05538   0.13844
     501.00   3.699838     0.1102E+03  -0.07946   0.19864
     503.00   3.701568     0.1176E+03  -0.05141   0.12854
     505.00   3.703291     0.1173E+03  -0.05252   0.13129
     507.00   3.705008     0.1222E+03  -0.03457   0.08643
     509.00   3.706718     0.1163E+03  -0.05605   0.14013
     511.00   3.708421     0.1189E+03  -0.04647   0.11618
     513.00   3.710117     0.1158E+03  -0.05800   0.14500
     515.00   3.711807     0.1117E+03  -0.07389   0.18471
     517.00   3.713490     0.1007E+03  -0.11887   0.29717
     519.00   3.715167     0.1050E+03  -0.10044   0.25109
     521.00   3.716838     0.1140E+03  -0.06492   0.16231
     523.00   3.718502     0.1248E+03  -0.02548   0.06370
     525.00   3.720159     0.1304E+03  -0.00665   0.01664
     527.00   3.721811     0.1149E+03  -0.06129   0.15321
     529.00   3.723456     0.1329E+03   0.00167  -0.00417
     531.00   3.725095     0.1407E+03   0.02642  -0.06605
     533.00   3.726727     0.1248E+03  -0.02564   0.06410
     535.00   3.728354     0.1368E+03   0.01425  -0.03562
     537.00   3.729974     0.1353E+03   0.00960  -0.02399
     539.00   3.731589     0.1331E+03   0.00231  -0.00577
     541.00   3.733197     0.1310E+03  -0.00460   0.01150
     543.00   3.734800     0.1329E+03   0.00181  -0.00451
     545.00   3.736397     0.1352E+03   0.00929  -0.02324
     547.00   3.737987     0.1327E+03   0.00104  -0.00261
     549.00   3.739572     0.1343E+03   0.00637  -0.01593
     551.00   3.741152     0.1324E+03   0.00000   0.00000
     553.00   3.742725     0.1373E+03   0.01576  -0.03940
     555.00   3.744293     0.1396E+03   0.02324  -0.05809
     557.00   3.745855     0.1364E+03   0.01289  -0.03222
     559.00   3.747412     0.1330E+03   0.00217  -0.00543
     561.00   3.748963     0.1371E+03   0.01518  -0.03794
     563.00   3.750508     0.1371E+03   0.01529  -0.03822
     565.00   3.752048     0.1395E+03   0.02265  -0.05663
     567.00   3.753583     0.1363E+03   0.01282  -0.03205
     569.00   3.755112     0.1403E+03   0.02537  -0.06342
     571.00   3.756636     0.1362E+03   0.01227  -0.03068
     573.00   3.758155     0.1466E+03   0.04426  -0.11065
     575.00   3.759668     0.1426E+03   0.03248  -0.08120
     577.00   3.761176     0.1441E+03   0.03695  -0.09237
     579.00   3.762679     0.1395E+03   0.02264  -0.05661
     581.00   3.764176     0.1443E+03   0.03757  -0.09392
     583.00   3.765669     0.1472E+03   0.04599  -0.11499
     585.00   3.767156     0.1420E+03   0.03055  -0.07637
     587.00   3.768638     0.1413E+03   0.02826  -0.07064
     589.00   3.770115     0.1254E+03  -0.02339   0.05847
     591.00   3.771587     0.1387E+03   0.02013  -0.05034
     593.00   3.773055     0.1402E+03   0.02498  -0.06244
     595.00   3.774517     0.1408E+03   0.02685  -0.06712
     597.00   3.775974     0.1434E+03   0.03463  -0.08658
     599.00   3.777427     0.1419E+03   0.03025  -0.07563
     601.00   3.778874     0.1404E+03   0.02570  -0.06425
     603.00   3.780317     0.1438E+03   0.03596  -0.08990
     605.00   3.781755     0.1466E+03   0.04444  -0.11110
     607.00   3.783189     0.1460E+03   0.04265  -0.10663
     609.00   3.784617     0.1422E+03   0.03116  -0.07790
     611.00   3.786041     0.1429E+03   0.03332  -0.08330
     613.00   3.787461     0.1361E+03   0.01214  -0.03035
     615.00   3.788875     0.1394E+03   0.02237  -0.05593
     617.00   3.790285     0.1306E+03  -0.00568   0.01420
     619.00   3.791691     0.1375E+03   0.01666  -0.04165
     621.00   3.793092     0.1363E+03   0.01277  -0.03192
     623.00   3.794488     0.1326E+03   0.00061  -0.00151
     625.00   3.795880     0.1292E+03  -0.01036   0.02590
     627.00   3.797267     0.1353E+03   0.00954  -0.02386
     629.00   3.798651     0.1381E+03   0.01853  -0.04632
     631.00   3.800029     0.1360E+03   0.01162  -0.02905
     633.00   3.801404     0.1385E+03   0.01952  -0.04879
     635.00   3.802774     0.1399E+03   0.02404  -0.06011
     637.00   3.804139     0.1399E+03   0.02402  -0.06004
     639.00   3.805501     0.1418E+03   0.02998  -0.07495
     641.00   3.806858     0.1393E+03   0.02229  -0.05572
     643.00   3.808211     0.1407E+03   0.02662  -0.06656
     645.00   3.809560     0.1404E+03   0.02546  -0.06364
     647.00   3.810904     0.1402E+03   0.02485  -0.06211
     649.00   3.812245     0.1380E+03   0.01800  -0.04499
     651.00   3.813581     0.1427E+03   0.03253  -0.08133
     653.00   3.814913     0.1436E+03   0.03542  -0.08855
     655.00   3.816241     0.1401E+03   0.02457  -0.06143
     657.00   3.817565     0.1326E+03   0.00064  -0.00160
     659.00   3.818885     0.1398E+03   0.02363  -0.05908
     661.00   3.820201     0.1410E+03   0.02752  -0.06879
     663.00   3.821513     0.1393E+03   0.02221  -0.05554
     665.00   3.822822     0.1378E+03   0.01749  -0.04374
     667.00   3.824126     0.1345E+03   0.00685  -0.01713
     669.00   3.825426     0.1356E+03   0.01042  -0.02604
     671.00   3.826723     0.1303E+03  -0.00672   0.01679
     673.00   3.828015     0.1328E+03   0.00130  -0.00326
     675.00   3.829304     0.1306E+03  -0.00575   0.01439
     677.00   3.830589     0.1314E+03  -0.00316   0.00790
     679.00   3.831870     0.1305E+03  -0.00615   0.01538
     681.00   3.833147     0.1312E+03  -0.00387   0.00967
     683.00   3.834421     0.1331E+03   0.00245  -0.00613
     685.00   3.835690     0.1306E+03  -0.00581   0.01452
     687.00   3.836957     0.1327E+03   0.00120  -0.00300
     689.00   3.838219     0.1353E+03   0.00964  -0.02411
     691.00   3.839478     0.1364E+03   0.01292  -0.03231
     693.00   3.840733     0.1362E+03   0.01224  -0.03060
     695.00   3.841985     0.1365E+03   0.01344  -0.03361
     697.00   3.843233     0.1391E+03   0.02150  -0.05374
     699.00   3.844477     0.1394E+03   0.02242  -0.05605
     701.00   3.845718     0.1386E+03   0.02005  -0.05014
     703.00   3.846955     0.1396E+03   0.02323  -0.05807
     705.00   3.848189     0.1371E+03   0.01535  -0.03839
     707.00   3.849419     0.1309E+03  -0.00477   0.01191
     709.00   3.850646     0.1254E+03  -0.02364   0.05911
     711.00   3.851870     0.1217E+03  -0.03654   0.09134
     713.00   3.853090     0.1186E+03  -0.04763   0.11907
     715.00   3.854306     0.1183E+03  -0.04888   0.12220
     717.00   3.855519     0.1202E+03  -0.04198   0.10496
     719.00   3.856729     0.1183E+03  -0.04874   0.12186
     721.00   3.857935     0.1216E+03  -0.03703   0.09257
     723.00   3.859138     0.1252E+03  -0.02418   0.06046
     725.00   3.860338     0.1268E+03  -0.01854   0.04636
     727.00   3.861534     0.1286E+03  -0.01251   0.03127
     729.00   3.862728     0.1290E+03  -0.01133   0.02833
     731.00   3.863917     0.1341E+03   0.00556  -0.01391
     733.00   3.865104     0.1342E+03   0.00607  -0.01519
     735.00   3.866287     0.1371E+03   0.01534  -0.03835
     737.00   3.867467     0.1408E+03   0.02690  -0.06725
     739.00   3.868644     0.1385E+03   0.01976  -0.04940
     741.00   3.869818     0.1388E+03   0.02071  -0.05177
     743.00   3.870989     0.1420E+03   0.03053  -0.07632
     745.00   3.872156     0.1419E+03   0.03016  -0.07540
     747.00   3.873321     0.1443E+03   0.03741  -0.09353
     749.00   3.874482     0.1436E+03   0.03546  -0.08866
     751.00   3.875640     0.1444E+03   0.03776  -0.09441
     753.00   3.876795     0.1459E+03   0.04217  -0.10543
     755.00   3.877947     0.1466E+03   0.04430  -0.11075
     757.00   3.879096     0.1459E+03   0.04225  -0.10562
     759.00   3.880242     0.1422E+03   0.03118  -0.07795
     761.00   3.881385     0.1388E+03   0.02063  -0.05158
     763.00   3.882524     0.1351E+03   0.00895  -0.02237
     765.00   3.883662     0.1310E+03  -0.00465   0.01163
     767.00   3.884795     0.1245E+03  -0.02661   0.06653
     769.00   3.885926     0.1271E+03  -0.01777   0.04443
     771.00   3.887054     0.1248E+03  -0.02574   0.06436
     773.00   3.888180     0.1253E+03  -0.02370   0.05924
     775.00   3.889302     0.1243E+03  -0.02718   0.06796
     777.00   3.890421     0.1263E+03  -0.02044   0.05111
     779.00   3.891537     0.1265E+03  -0.01981   0.04952
     781.00   3.892651     0.1271E+03  -0.01764   0.04410
     783.00   3.893762     0.1270E+03  -0.01798   0.04495
     785.00   3.894870     0.1259E+03  -0.02178   0.05445
     787.00   3.895975     0.1281E+03  -0.01414   0.03536
     789.00   3.897077     0.1279E+03  -0.01482   0.03706
     791.00   3.898176     0.1252E+03  -0.02429   0.06074
     793.00   3.899273     0.1260E+03  -0.02144   0.05361
     795.00   3.900367     0.1261E+03  -0.02114   0.05286
     797.00   3.901458     0.1292E+03  -0.01051   0.02627
     799.00   3.902547     0.1293E+03  -0.01008   0.02521
     801.00   3.903632     0.1325E+03   0.00056  -0.00140
     803.00   3.904716     0.1332E+03   0.00286  -0.00715
     805.00   3.905796     0.1328E+03   0.00137  -0.00342
     807.00   3.906873     0.1350E+03   0.00841  -0.02101
     809.00   3.907948     0.1342E+03   0.00595  -0.01487
     811.00   3.909021     0.1351E+03   0.00887  -0.02218
     813.00   3.910090     0.1372E+03   0.01563  -0.03907
     815.00   3.911158     0.1379E+03   0.01788  -0.04470
     817.00   3.912222     0.1381E+03   0.01830  -0.04575
     819.00   3.913284     0.1355E+03   0.01029  -0.02572
     821.00   3.914343     0.1338E+03   0.00467  -0.01167
     823.00   3.915400     0.1340E+03   0.00544  -0.01360
     825.00   3.916454     0.1340E+03   0.00524  -0.01309
     827.00   3.917506     0.1345E+03   0.00692  -0.01730
     829.00   3.918555     0.1334E+03   0.00326  -0.00814
     831.00   3.919601     0.1307E+03  -0.00536   0.01341
     833.00   3.920645     0.1296E+03  -0.00927   0.02316
     835.00   3.921686     0.1297E+03  -0.00877   0.02192
     837.00   3.922725     0.1300E+03  -0.00769   0.01921
     839.00   3.923762     0.1270E+03  -0.01813   0.04532
     841.00   3.924796     0.1299E+03  -0.00819   0.02048
     843.00   3.925828     0.1268E+03  -0.01875   0.04687
     845.00   3.926857     0.1237E+03  -0.02933   0.07333
     847.00   3.927883     0.1228E+03  -0.03263   0.08157
     849.00   3.928908     0.1243E+03  -0.02729   0.06823
     851.00   3.929929     0.1196E+03  -0.04392   0.10980
     853.00   3.930949     0.1238E+03  -0.02896   0.07241
     855.00   3.931966     0.1179E+03  -0.05019   0.12548
     857.00   3.932981     0.1264E+03  -0.02018   0.05045
     859.00   3.933993     0.1254E+03  -0.02360   0.05901
     861.00   3.935003     0.1263E+03  -0.02023   0.05057
     863.00   3.936011     0.1279E+03  -0.01478   0.03694
     865.00   3.937016     0.1284E+03  -0.01315   0.03288
     867.00   3.938019     0.1203E+03  -0.04137   0.10342
     869.00   3.939020     0.1262E+03  -0.02072   0.05180
     871.00   3.940018     0.1290E+03  -0.01133   0.02833
     873.00   3.941014     0.1294E+03  -0.00976   0.02440
     875.00   3.942008     0.1284E+03  -0.01314   0.03285
     877.00   3.943000     0.1296E+03  -0.00934   0.02336
     879.00   3.943989     0.1304E+03  -0.00652   0.01629
     881.00   3.944976     0.1285E+03  -0.01287   0.03217
     883.00   3.945961     0.1293E+03  -0.01005   0.02513
     885.00   3.946943     0.1285E+03  -0.01280   0.03200
     887.00   3.947924     0.1253E+03  -0.02387   0.05967
     889.00   3.948902     0.1263E+03  -0.02047   0.05118
     891.00   3.949878     0.1269E+03  -0.01816   0.04539
     893.00   3.950851     0.1256E+03  -0.02274   0.05685
     895.00   3.951823     0.1256E+03  -0.02279   0.05698
     897.00   3.952792     0.1259E+03  -0.02175   0.05437
     899.00   3.953760     0.1261E+03  -0.02123   0.05307
     901.00   3.954725     0.1232E+03  -0.03108   0.07769
     903.00   3.955688     0.1265E+03  -0.01965   0.04911
     905.00   3.956649     0.1286E+03  -0.01265   0.03164
     907.00   3.957607     0.1281E+03  -0.01407   0.03518
     909.00   3.958564     0.1260E+03  -0.02129   0.05321
     911.00   3.959518     0.1271E+03  -0.01780   0.04449
     913.00   3.960471     0.1280E+03  -0.01454   0.03634
     915.00   3.961421     0.1276E+03  -0.01606   0.04014
     917.00   3.962369     0.1272E+03  -0.01724   0.04310
     919.00   3.963315     0.1276E+03  -0.01585   0.03963
     921.00   3.964260     0.1248E+03  -0.02559   0.06397
     923.00   3.965202     0.1239E+03  -0.02866   0.07164
     925.00   3.966142     0.1231E+03  -0.03137   0.07844
     927.00   3.967080     0.1238E+03  -0.02893   0.07233
     929.00   3.968016     0.1224E+03  -0.03392   0.08480
     931.00   3.968950     0.1228E+03  -0.03270   0.08174
     933.00   3.969882     0.1228E+03  -0.03260   0.08150
     935.00   3.970812     0.1225E+03  -0.03363   0.08407
     937.00   3.971740     0.1209E+03  -0.03936   0.09840
     939.00   3.972666     0.1224E+03  -0.03383   0.08457
     941.00   3.973590     0.1207E+03  -0.04001   0.10002
     943.00   3.974512     0.1222E+03  -0.03471   0.08677
     945.00   3.975432     0.1210E+03  -0.03899   0.09749
     947.00   3.976350     0.1225E+03  -0.03363   0.08407
     949.00   3.977266     0.1225E+03  -0.03355   0.08389
     951.00   3.978180     0.1212E+03  -0.03816   0.09540
     953.00   3.979093     0.1217E+03  -0.03655   0.09138
     955.00   3.980003     0.1200E+03  -0.04253   0.10633
     957.00   3.980912     0.1208E+03  -0.03973   0.09931
     959.00   3.981819     0.1218E+03  -0.03616   0.09041
     961.00   3.982723     0.1207E+03  -0.04023   0.10057
     963.00   3.983626     0.1210E+03  -0.03895   0.09737
     965.00   3.984527     0.1195E+03  -0.04444   0.11110
     967.00   3.985426     0.1196E+03  -0.04396   0.10990
     969.00   3.986324     0.1205E+03  -0.04085   0.10212
     971.00   3.987219     0.1195E+03  -0.04441   0.11103
     973.00   3.988113     0.1188E+03  -0.04696   0.11739
     975.00   3.989005     0.1185E+03  -0.04803   0.12007
     977.00   3.989895     0.1187E+03  -0.04748   0.11870
     979.00   3.990783     0.1175E+03  -0.05163   0.12908
     981.00   3.991669     0.1193E+03  -0.04529   0.11322
     983.00   3.992553     0.1186E+03  -0.04768   0.11920
     985.00   3.993436     0.1189E+03  -0.04666   0.11664
     987.00   3.994317     0.1181E+03  -0.04944   0.12359
     989.00   3.995196     0.1178E+03  -0.05068   0.12669
     991.00   3.996074     0.1175E+03  -0.05165   0.12913
     993.00   3.996949     0.1177E+03  -0.05109   0.12773
     995.00   3.997823     0.1177E+03  -0.05104   0.12759
     997.00   3.998695     0.1176E+03  -0.05134   0.12834
     999.00   3.999566     0.1173E+03  -0.05253   0.13131
    1003.00   4.001301     0.1165E+03  -0.05539   0.13848
    1008.00   4.003461     0.1155E+03  -0.05906   0.14765
    1013.00   4.005610     0.1158E+03  -0.05813   0.14532
    1018.00   4.007748     0.1146E+03  -0.06264   0.15660
    1023.00   4.009875     0.1144E+03  -0.06330   0.15825
    1028.00   4.011993     0.1142E+03  -0.06397   0.15993
    1033.00   4.014100     0.1128E+03  -0.06948   0.17370
    1038.00   4.016197     0.1122E+03  -0.07190   0.17974
    1043.00   4.018284     0.1124E+03  -0.07114   0.17785
    1048.00   4.020361     0.1115E+03  -0.07449   0.18623
    1053.00   4.022429     0.1112E+03  -0.07571   0.18928
    1058.00   4.024486     0.1099E+03  -0.08072   0.20180
    1063.00   4.026533     0.1094E+03  -0.08286   0.20716
    1068.00   4.028571     0.1081E+03  -0.08798   0.21996
    1073.00   4.030600     0.1081E+03  -0.08780   0.21951
    1078.00   4.032619     0.1072E+03  -0.09141   0.22851
    1083.00   4.034628     0.1059E+03  -0.09694   0.24235
    1088.00   4.036629     0.1054E+03  -0.09901   0.24753
    1093.00   4.038620     0.1050E+03  -0.10044   0.25110
    1098.00   4.040603     0.1037E+03  -0.10601   0.26503
    1103.00   4.042576     0.1034E+03  -0.10739   0.26847
    1108.00   4.044539     0.1025E+03  -0.11086   0.27715
    1113.00   4.046495     0.1021E+03  -0.11271   0.28177
    1118.00   4.048442     0.1014E+03  -0.11572   0.28929
    1123.00   4.050380     0.1013E+03  -0.11606   0.29014
    1128.00   4.052309     0.1004E+03  -0.11995   0.29986
    1133.00   4.054230     0.1003E+03  -0.12063   0.30159
    1138.00   4.056142     0.9961E+02  -0.12348   0.30871
    1143.00   4.058046     0.9881E+02  -0.12699   0.31748
    1148.00   4.059942     0.9944E+02  -0.12424   0.31060
    1153.00   4.061830     0.9922E+02  -0.12519   0.31296
    1158.00   4.063708     0.9831E+02  -0.12919   0.32298
    1163.00   4.065579     0.9720E+02  -0.13410   0.33526
    1168.00   4.067443     0.9714E+02  -0.13439   0.33597
    1173.00   4.069298     0.9743E+02  -0.13310   0.33276
    1178.00   4.071145     0.9607E+02  -0.13920   0.34800
    1183.00   4.072985     0.9545E+02  -0.14201   0.35504
    1188.00   4.074817     0.9445E+02  -0.14657   0.36641
    1193.00   4.076640     0.9546E+02  -0.14196   0.35491
    1198.00   4.078457     0.9309E+02  -0.15288   0.38220
    1203.00   4.080266     0.9418E+02  -0.14782   0.36956
    1208.00   4.082067     0.9342E+02  -0.15134   0.37835
    1213.00   4.083861     0.9341E+02  -0.15137   0.37844
    1218.00   4.085648     0.9339E+02  -0.15147   0.37866
    1223.00   4.087426     0.9286E+02  -0.15397   0.38494
    1228.00   4.089198     0.9226E+02  -0.15675   0.39188
    1233.00   4.090963     0.9184E+02  -0.15877   0.39693
    1238.00   4.092721     0.9149E+02  -0.16040   0.40101
    1243.00   4.094471     0.9071E+02  -0.16411   0.41027
    1248.00   4.096214     0.9060E+02  -0.16467   0.41167
    1253.00   4.097951     0.8990E+02  -0.16801   0.42003
    1258.00   4.099681     0.8962E+02  -0.16940   0.42349
    1263.00   4.101403     0.8921E+02  -0.17138   0.42846
    1268.00   4.103119     0.8859E+02  -0.17440   0.43599
    1273.00   4.104828     0.8850E+02  -0.17486   0.43714
    1278.00   4.106531     0.8839E+02  -0.17538   0.43845
    1283.00   4.108227     0.8625E+02  -0.18603   0.46507
    1288.00   4.109916     0.8709E+02  -0.18180   0.45451
    1293.00   4.111598     0.8638E+02  -0.18536   0.46341
    1298.00   4.113275     0.8677E+02  -0.18339   0.45849
    1303.00   4.114944     0.8599E+02  -0.18734   0.46835
    1308.00   4.116608     0.8598E+02  -0.18737   0.46841
    1313.00   4.118265     0.8472E+02  -0.19380   0.48451
    1318.00   4.119915     0.8441E+02  -0.19537   0.48843
    1323.00   4.121560     0.8441E+02  -0.19540   0.48851
    1328.00   4.123198     0.8333E+02  -0.20100   0.50251
    1333.00   4.124830     0.8340E+02  -0.20063   0.50157
    1338.00   4.126456     0.8281E+02  -0.20372   0.50930
    1343.00   4.128076     0.8283E+02  -0.20357   0.50893
    1348.00   4.129690     0.8230E+02  -0.20637   0.51593
    1353.00   4.131298     0.8191E+02  -0.20845   0.52113
    1358.00   4.132900     0.8093E+02  -0.21367   0.53418
    1363.00   4.134496     0.8068E+02  -0.21505   0.53762
    1368.00   4.136086     0.8099E+02  -0.21337   0.53344
    1373.00   4.137671     0.8119E+02  -0.21227   0.53066
    1378.00   4.139249     0.8102E+02  -0.21319   0.53298
    1383.00   4.140822     0.8095E+02  -0.21355   0.53386
    1388.00   4.142389     0.8024E+02  -0.21738   0.54346
    1393.00   4.143951     0.7636E+02  -0.23891   0.59726
    1398.00   4.145507     0.7660E+02  -0.23756   0.59390
    1403.00   4.147058     0.7597E+02  -0.24114   0.60285
    1408.00   4.148602     0.7637E+02  -0.23889   0.59723
    1413.00   4.150142     0.7578E+02  -0.24221   0.60553
    1418.00   4.151676     0.7615E+02  -0.24014   0.60034
    1423.00   4.153205     0.7552E+02  -0.24372   0.60931
    1428.00   4.154728     0.7485E+02  -0.24762   0.61905
    1433.00   4.156246     0.7591E+02  -0.24148   0.60370
    1438.00   4.157759     0.7618E+02  -0.23996   0.59990
    1443.00   4.159266     0.7499E+02  -0.24678   0.61696
    1448.00   4.160769     0.7600E+02  -0.24095   0.60238
    1453.00   4.162266     0.7540E+02  -0.24441   0.61103
    1457.00   4.163460     0.7568E+02  -0.24283   0.60707
    1462.00   4.164948     0.7351E+02  -0.25543   0.63859
    1468.00   4.166726     0.7373E+02  -0.25413   0.63531
    1473.00   4.168202     0.7323E+02  -0.25708   0.64269
    1478.00   4.169674     0.7367E+02  -0.25447   0.63618
    1483.00   4.171141     0.7391E+02  -0.25308   0.63271
    1488.00   4.172603     0.7343E+02  -0.25589   0.63972
    1493.00   4.174060     0.7471E+02  -0.24843   0.62106
    1498.00   4.175512     0.7433E+02  -0.25060   0.62650
    1503.00   4.176959     0.7360E+02  -0.25492   0.63731
    1508.00   4.178401     0.7375E+02  -0.25403   0.63508
    1513.00   4.179839     0.7481E+02  -0.24783   0.61957
    1518.00   4.181272     0.7496E+02  -0.24695   0.61738
    1523.00   4.182700     0.7490E+02  -0.24732   0.61829
    1528.00   4.184123     0.7526E+02  -0.24523   0.61307
    1533.00   4.185542     0.7505E+02  -0.24643   0.61606
    1538.00   4.186956     0.7404E+02  -0.25229   0.63073
    1543.00   4.188366     0.7453E+02  -0.24945   0.62362
    1548.00   4.189771     0.7468E+02  -0.24859   0.62147
    1553.00   4.191172     0.7429E+02  -0.25083   0.62707
    1558.00   4.192567     0.7260E+02  -0.26087   0.65216
    1563.00   4.193959     0.7342E+02  -0.25599   0.63999
    1568.00   4.195346     0.7319E+02  -0.25732   0.64330
    1573.00   4.196729     0.7408E+02  -0.25208   0.63021
    1578.00   4.198107     0.6931E+02  -0.28102   0.70255
    1583.00   4.199481     0.7122E+02  -0.26918   0.67294
    1588.00   4.200850     0.7113E+02  -0.26973   0.67434
    1593.00   4.202216     0.7277E+02  -0.25981   0.64952
    1598.00   4.203577     0.7358E+02  -0.25500   0.63751
    1605.00   4.205475     0.7126E+02  -0.26892   0.67231
    1615.00   4.208173     0.7236E+02  -0.26226   0.65565
    1625.00   4.210854     0.7028E+02  -0.27498   0.68745
    1635.00   4.213518     0.7175E+02  -0.26597   0.66492
    1645.00   4.216166     0.6919E+02  -0.28173   0.70433
    1655.00   4.218798     0.7001E+02  -0.27664   0.69159
    1665.00   4.221415     0.6794E+02  -0.28965   0.72411
    1675.00   4.224015     0.6780E+02  -0.29056   0.72640
    1685.00   4.226600     0.6706E+02  -0.29534   0.73836
    1695.00   4.229170     0.6611E+02  -0.30154   0.75386
    1705.00   4.231725     0.6477E+02  -0.31040   0.77599
    1715.00   4.234264     0.6356E+02  -0.31859   0.79648
    1725.00   4.236789     0.6230E+02  -0.32733   0.81832
    1735.00   4.239300     0.6051E+02  -0.33997   0.84992
    1745.00   4.241796     0.5977E+02  -0.34534   0.86334
    1755.00   4.244277     0.5885E+02  -0.35206   0.88014
    1765.00   4.246745     0.5763E+02  -0.36116   0.90289
    1775.00   4.249198     0.5637E+02  -0.37072   0.92679
    1785.00   4.251638     0.5557E+02  -0.37695   0.94237
    1795.00   4.254065     0.5440E+02  -0.38615   0.96538
    1805.00   4.256477     0.5326E+02  -0.39536   0.98840
    1815.00   4.258877     0.5225E+02  -0.40366   1.00915
    1825.00   4.261263     0.5151E+02  -0.40991   1.02477
    1835.00   4.263636     0.5072E+02  -0.41658   1.04146
    1845.00   4.265996     0.4973E+02  -0.42515   1.06287
    1855.00   4.268344     0.4922E+02  -0.42962   1.07406
    1865.00   4.270679     0.4815E+02  -0.43919   1.09797
    1875.00   4.273001     0.4706E+02  -0.44915   1.12287
    1885.00   4.275311     0.4665E+02  -0.45296   1.13239
    1895.00   4.277609     0.4515E+02  -0.46716   1.16791
    1905.00   4.279895     0.4502E+02  -0.46837   1.17092
    1915.00   4.282169     0.4406E+02  -0.47770   1.19425
    1925.00   4.284431     0.4328E+02  -0.48549   1.21372
    1935.00   4.286681     0.4213E+02  -0.49723   1.24307
    1945.00   4.288919     0.4108E+02  -0.50815   1.27038
    1955.00   4.291147     0.4075E+02  -0.51164   1.27909
    1965.00   4.293363     0.4000E+02  -0.51968   1.29921
    1975.00   4.295567     0.3902E+02  -0.53053   1.32633
    1985.00   4.297760     0.3846E+02  -0.53673   1.34182
    1995.00   4.299943     0.3793E+02  -0.54282   1.35705
    2005.00   4.302114     0.3758E+02  -0.54680   1.36700
    2015.00   4.304275     0.3703E+02  -0.55323   1.38308
    2025.00   4.306425     0.3620E+02  -0.56308   1.40770
    2035.00   4.308564     0.3566E+02  -0.56965   1.42413
    2045.00   4.310693     0.3538E+02  -0.57305   1.43261
    2055.00   4.312812     0.3479E+02  -0.58034   1.45085
    2065.00   4.314920     0.3418E+02  -0.58798   1.46995
    2075.00   4.317018     0.3374E+02  -0.59361   1.48403
    2085.00   4.319106     0.3323E+02  -0.60027   1.50068
    2095.00   4.321184     0.3262E+02  -0.60829   1.52071
    2105.00   4.323252     0.3233E+02  -0.61215   1.53037
    2115.00   4.325311     0.3178E+02  -0.61961   1.54901
    2125.00   4.327359     0.3130E+02  -0.62625   1.56563
    2135.00   4.329398     0.3094E+02  -0.63126   1.57816
    2145.00   4.331428     0.3046E+02  -0.63809   1.59522
    2155.00   4.333447     0.2999E+02  -0.64483   1.61209
    2165.00   4.335458     0.2938E+02  -0.65368   1.63420
    2175.00   4.337460     0.2900E+02  -0.65940   1.64851
    2185.00   4.339452     0.2862E+02  -0.66517   1.66292
    2195.00   4.341434     0.2824E+02  -0.67092   1.67730
    2205.00   4.343409     0.2760E+02  -0.68096   1.70239
    2215.00   4.345374     0.2743E+02  -0.68356   1.70891
    2225.00   4.347330     0.2683E+02  -0.69325   1.73312
    2235.00   4.349277     0.2647E+02  -0.69902   1.74755
    2245.00   4.351216     0.2608E+02  -0.70544   1.76359
    2255.00   4.353147     0.2573E+02  -0.71130   1.77826
    2265.00   4.355068     0.2523E+02  -0.71991   1.79976
    2275.00   4.356981     0.2499E+02  -0.72406   1.81016
    2285.00   4.358886     0.2450E+02  -0.73265   1.83163
    2295.00   4.360783     0.2018E+02  -0.81685   2.04213
    2305.00   4.362671     0.2204E+02  -0.77864   1.94660
    2315.00   4.364551     0.2194E+02  -0.78059   1.95148
    2325.00   4.366423     0.1875E+02  -0.84883   2.12208
    2335.00   4.368287     0.2028E+02  -0.81466   2.03664
    2345.00   4.370143     0.1899E+02  -0.84319   2.10799
    2355.00   4.371991     0.1746E+02  -0.87977   2.19944
    2365.00   4.373831     0.1881E+02  -0.84729   2.11822
    2375.00   4.375664     0.1780E+02  -0.87126   2.17816
    2385.00   4.377488     0.1649E+02  -0.90448   2.26119
    2395.00   4.379306     0.1755E+02  -0.87759   2.19396
    2405.00   4.381115     0.1697E+02  -0.89208   2.23019
    2415.00   4.382917     0.1566E+02  -0.92690   2.31724
    2425.00   4.384712     0.1651E+02  -0.90411   2.26028
    2435.00   4.386499     0.1590E+02  -0.92028   2.30070
    2445.00   4.388279     0.1580E+02  -0.92323   2.30808
    2455.00   4.390052     0.1533E+02  -0.93638   2.34096
    2465.00   4.391817     0.1537E+02  -0.93525   2.33812
    2475.00   4.393575     0.1496E+02  -0.94684   2.36710
    2485.00   4.395327     0.1339E+02  -0.99501   2.48752
    2495.00   4.397071     0.1302E+02  -1.00714   2.51786
    2505.00   4.398808     0.1319E+02  -1.00143   2.50356
    2515.00   4.400538     0.1261E+02  -1.02120   2.55299
    2525.00   4.402262     0.1289E+02  -1.01148   2.52870
    2535.00   4.403978     0.1292E+02  -1.01050   2.52625
    2545.00   4.405688     0.1278E+02  -1.01527   2.53817
    2555.00   4.407391     0.1275E+02  -1.01614   2.54035
    2565.00   4.409087     0.1283E+02  -1.01341   2.53354
    2575.00   4.410777     0.1291E+02  -1.01075   2.52686
    2585.00   4.412460     0.1260E+02  -1.02148   2.55370
    2595.00   4.414137     0.1264E+02  -1.01995   2.54987
    2605.00   4.415808     0.1263E+02  -1.02041   2.55102
    2615.00   4.417472     0.1244E+02  -1.02710   2.56775
    2625.00   4.419129     0.1225E+02  -1.03369   2.58424
    2635.00   4.420781     0.1225E+02  -1.03373   2.58432
    2645.00   4.422426     0.1214E+02  -1.03748   2.59371
    2655.00   4.424065     0.1199E+02  -1.04299   2.60747
    2665.00   4.425697     0.1180E+02  -1.04975   2.62438
    2675.00   4.427324     0.1188E+02  -1.04683   2.61707
    2685.00   4.428945     0.1176E+02  -1.05149   2.62874
    2695.00   4.430559     0.1156E+02  -1.05887   2.64717
    2705.00   4.432167     0.1153E+02  -1.06004   2.65010
    2715.00   4.433770     0.1142E+02  -1.06419   2.66048
    2725.00   4.435367     0.1134E+02  -1.06716   2.66791
    2735.00   4.436957     0.1116E+02  -1.07405   2.68512
    2745.00   4.438542     0.1112E+02  -1.07571   2.68927
    2755.00   4.440122     0.1104E+02  -1.07901   2.69752
    2765.00   4.441695     0.1090E+02  -1.08441   2.71104
    2775.00   4.443263     0.1076E+02  -1.08983   2.72457
    2785.00   4.444825     0.1070E+02  -1.09220   2.73051
    2795.00   4.446382     0.1064E+02  -1.09478   2.73695
    2805.00   4.447933     0.1053E+02  -1.09951   2.74879
    2815.00   4.449478     0.1039E+02  -1.10504   2.76261
    2825.00   4.451018     0.1031E+02  -1.10860   2.77149
    2835.00   4.452553     0.1023E+02  -1.11177   2.77943
    2845.00   4.454082     0.1011E+02  -1.11688   2.79221
    2855.00   4.455606     0.1001E+02  -1.12139   2.80347
    2865.00   4.457125     0.9911E+01  -1.12566   2.81415
    2875.00   4.458638     0.9807E+01  -1.13027   2.82566
    2885.00   4.460146     0.9719E+01  -1.13416   2.83540
    2895.00   4.461648     0.9623E+01  -1.13846   2.84616
    2905.00   4.463146     0.9520E+01  -1.14313   2.85784
    2915.00   4.464639     0.9433E+01  -1.14715   2.86788
    2925.00   4.466126     0.9293E+01  -1.15364   2.88410
    2935.00   4.467608     0.9245E+01  -1.15588   2.88970
    2945.00   4.469085     0.9134E+01  -1.16115   2.90287
    2955.00   4.470557     0.9047E+01  -1.16530   2.91324
    2965.00   4.472025     0.8968E+01  -1.16907   2.92267
    2975.00   4.473487     0.8878E+01  -1.17347   2.93368
    2985.00   4.474944     0.8778E+01  -1.17840   2.94600
    2995.00   4.476397     0.8684E+01  -1.18307   2.95769
    3005.00   4.477844     0.8600E+01  -1.18730   2.96825
    3015.00   4.479287     0.8533E+01  -1.19069   2.97672
    3025.00   4.480725     0.8441E+01  -1.19540   2.98850
    3035.00   4.482159     0.8344E+01  -1.20040   3.00100
    3045.00   4.483587     0.8294E+01  -1.20303   3.00758
    3055.00   4.485011     0.8211E+01  -1.20739   3.01847
    3065.00   4.486430     0.8132E+01  -1.21160   3.02901
    3075.00   4.487845     0.8068E+01  -1.21502   3.03755
    3085.00   4.489255     0.7975E+01  -1.22006   3.05016
    3095.00   4.490661     0.7909E+01  -1.22369   3.05922
    3105.00   4.492062     0.7848E+01  -1.22705   3.06761
    3115.00   4.493458     0.7739E+01  -1.23307   3.08269
    3125.00   4.494850     0.7691E+01  -1.23579   3.08947
    3135.00   4.496238     0.7619E+01  -1.23987   3.09966
    3145.00   4.497621     0.7544E+01  -1.24416   3.11041
    3155.00   4.499000     0.7462E+01  -1.24896   3.12239
    3165.00   4.500374     0.7387E+01  -1.25330   3.13326
    3175.00   4.501744     0.7327E+01  -1.25689   3.14222
    3185.00   4.503109     0.7254E+01  -1.26119   3.15298
    3195.00   4.504471     0.7189E+01  -1.26511   3.16278
    3210.00   4.506505     0.7078E+01  -1.27190   3.17976
    3230.00   4.509202     0.6935E+01  -1.28071   3.20178
    3250.00   4.511883     0.6798E+01  -1.28941   3.22352
    3270.00   4.514548     0.6659E+01  -1.29841   3.24601
    3290.00   4.517196     0.6515E+01  -1.30789   3.26972
    3310.00   4.519828     0.6390E+01  -1.31626   3.29065
    3330.00   4.522444     0.6255E+01  -1.32556   3.31390
    3350.00   4.525045     0.6138E+01  -1.33375   3.33437
    3370.00   4.527630     0.6009E+01  -1.34297   3.35742
    3390.00   4.530200     0.5880E+01  -1.35243   3.38107
    3410.00   4.532754     0.5754E+01  -1.36179   3.40447
    3430.00   4.535294     0.5649E+01  -1.36985   3.42462
    3450.00   4.537819     0.5536E+01  -1.37861   3.44652
    3470.00   4.540329     0.5420E+01  -1.38778   3.46945
    3490.00   4.542826     0.5310E+01  -1.39665   3.49164
    3510.00   4.545307     0.5205E+01  -1.40533   3.51332
    3530.00   4.547775     0.5093E+01  -1.41482   3.53705
    3550.00   4.550228     0.4995E+01  -1.42324   3.55811
    3570.00   4.552669     0.4892E+01  -1.43226   3.58066
    3590.00   4.555095     0.4796E+01  -1.44094   3.60235
    3610.00   4.557508     0.4706E+01  -1.44915   3.62288
    3630.00   4.559907     0.4611E+01  -1.45798   3.64496
    3650.00   4.562293     0.4512E+01  -1.46739   3.66848
    3670.00   4.564666     0.4421E+01  -1.47629   3.69073
    3690.00   4.567026     0.4324E+01  -1.48592   3.71481
    3710.00   4.569374     0.4235E+01  -1.49489   3.73723
    3730.00   4.571709     0.4163E+01  -1.50236   3.75590
    3750.00   4.574031     0.4067E+01  -1.51247   3.78118
    3770.00   4.576342     0.4003E+01  -1.51938   3.79845
    3790.00   4.578639     0.3924E+01  -1.52810   3.82025
    3810.00   4.580925     0.3851E+01  -1.53623   3.84058
    3830.00   4.583199     0.3781E+01  -1.54417   3.86042
    3850.00   4.585461     0.3710E+01  -1.55240   3.88099
    3870.00   4.587711     0.3630E+01  -1.56182   3.90455
    3890.00   4.589950     0.3566E+01  -1.56966   3.92414
    3910.00   4.592176     0.3501E+01  -1.57761   3.94403
    3930.00   4.594393     0.3435E+01  -1.58585   3.96463
    3950.00   4.596597     0.3362E+01  -1.59516   3.98789
    3970.00   4.598790     0.3303E+01  -1.60293   4.00733
    3990.00   4.600973     0.3230E+01  -1.61259   4.03147
    4010.00   4.603145     0.3177E+01  -1.61971   4.04927
    4030.00   4.605305     0.3124E+01  -1.62710   4.06776
    4050.00   4.607455     0.3060E+01  -1.63607   4.09019
    4070.00   4.609594     0.3008E+01  -1.64350   4.10875
    4090.00   4.611723     0.2954E+01  -1.65137   4.12843
    4110.00   4.613842     0.2903E+01  -1.65893   4.14733
    4130.00   4.615950     0.2855E+01  -1.66625   4.16563
    4150.00   4.618048     0.2803E+01  -1.67423   4.18558
    4170.00   4.620136     0.2754E+01  -1.68184   4.20460
    4190.00   4.622214     0.2704E+01  -1.68980   4.22450
    4210.00   4.624282     0.2654E+01  -1.69787   4.24468
    4230.00   4.626340     0.2618E+01  -1.70378   4.25945
    4250.00   4.628389     0.2569E+01  -1.71199   4.27997
    4270.00   4.630428     0.2529E+01  -1.71878   4.29695
    4290.00   4.632457     0.2416E+01  -1.73864   4.34661
    4310.00   4.634478     0.2302E+01  -1.75960   4.39901
    4330.00   4.636488     0.2293E+01  -1.76129   4.40322
    4350.00   4.638489     0.2197E+01  -1.78005   4.45013
    4370.00   4.640481     0.2138E+01  -1.79179   4.47948
    4390.00   4.642465     0.2094E+01  -1.80077   4.50192
    4410.00   4.644439     0.2014E+01  -1.81765   4.54414
    4430.00   4.646404     0.1984E+01  -1.82426   4.56065
    4450.00   4.648360     0.1948E+01  -1.83217   4.58043
    4470.00   4.650308     0.1882E+01  -1.84718   4.61794
    4490.00   4.652246     0.1877E+01  -1.84828   4.62069
    4510.00   4.654177     0.1831E+01  -1.85918   4.64794
    4530.00   4.656098     0.1784E+01  -1.87029   4.67573
    4550.00   4.658011     0.1774E+01  -1.87286   4.68215
    4570.00   4.659916     0.1752E+01  -1.87818   4.69546
    4590.00   4.661813     0.1699E+01  -1.89169   4.72923
    4610.00   4.663701     0.1699E+01  -1.89171   4.72927
    4630.00   4.665581     0.1666E+01  -1.90002   4.75005
    4650.00   4.667453     0.1649E+01  -1.90455   4.76136
    4670.00   4.669317     0.1637E+01  -1.90775   4.76938
    4690.00   4.671173     0.1606E+01  -1.91593   4.78981
    4710.00   4.673021     0.1580E+01  -1.92326   4.80815
    4730.00   4.674861     0.1578E+01  -1.92354   4.80886
    4750.00   4.676694     0.1544E+01  -1.93313   4.83283
    4770.00   4.678518     0.1524E+01  -1.93888   4.84719
    4790.00   4.680336     0.1509E+01  -1.94322   4.85805
    4810.00   4.682145     0.1473E+01  -1.95364   4.88410
    4830.00   4.683947     0.1474E+01  -1.95326   4.88315
    4850.00   4.685741     0.1448E+01  -1.96110   4.90274
    4870.00   4.687529     0.1420E+01  -1.96947   4.92368
    4890.00   4.689309     0.1401E+01  -1.97534   4.93835
    4910.00   4.691082     0.1384E+01  -1.98065   4.95163
    4930.00   4.692847     0.1362E+01  -1.98758   4.96895
    4950.00   4.694605     0.1340E+01  -1.99474   4.98686
    4970.00   4.696356     0.1329E+01  -1.99831   4.99578
    4990.00   4.698101     0.1310E+01  -2.00446   5.01115
    5010.00   4.699838     0.1293E+01  -2.01002   5.02506
    5030.00   4.701568     0.1277E+01  -2.01573   5.03932
    5050.00   4.703291     0.1250E+01  -2.02475   5.06188
    5070.00   4.705008     0.1240E+01  -2.02850   5.07124
    5090.00   4.706717     0.1225E+01  -2.03383   5.08457
    5110.00   4.708421     0.1203E+01  -2.04158   5.10396
    5130.00   4.710117     0.1194E+01  -2.04476   5.11191
    5150.00   4.711807     0.1173E+01  -2.05239   5.13098
    5170.00   4.713490     0.1167E+01  -2.05466   5.13664
    5190.00   4.715167     0.1146E+01  -2.06261   5.15654
    5210.00   4.716838     0.1134E+01  -2.06732   5.16830
    5230.00   4.718502     0.1115E+01  -2.07460   5.18651
    5250.00   4.720160     0.1105E+01  -2.07830   5.19576
    5270.00   4.721810     0.1098E+01  -2.08108   5.20270
    5290.00   4.723455     0.1074E+01  -2.09063   5.22657
    5310.00   4.725095     0.1061E+01  -2.09602   5.24006
    5330.00   4.726727     0.1051E+01  -2.10019   5.25047
    5350.00   4.728354     0.1039E+01  -2.10537   5.26343
    5370.00   4.729974     0.1027E+01  -2.11031   5.27577
    5390.00   4.731589     0.1015E+01  -2.11534   5.28836
    5410.00   4.733197     0.1003E+01  -2.12063   5.30157
    5430.00   4.734800     0.9850E+00  -2.12835   5.32087
    5450.00   4.736397     0.9792E+00  -2.13089   5.32723
    5470.00   4.737988     0.9640E+00  -2.13772   5.34430
    5490.00   4.739573     0.9533E+00  -2.14255   5.35638
    5510.00   4.741152     0.9409E+00  -2.14823   5.37058
    5530.00   4.742725     0.9401E+00  -2.14860   5.37149
    5550.00   4.744293     0.9174E+00  -2.15922   5.39806
    5570.00   4.745855     0.9141E+00  -2.16081   5.40203
    5590.00   4.747412     0.8992E+00  -2.16793   5.41982
    5610.00   4.748963     0.8914E+00  -2.17172   5.42929
    5630.00   4.750508     0.8762E+00  -2.17916   5.44790
    5650.00   4.752048     0.8707E+00  -2.18190   5.45476
    5670.00   4.753583     0.8601E+00  -2.18724   5.46810
    5690.00   4.755112     0.8456E+00  -2.19462   5.48655
    5710.00   4.756636     0.8409E+00  -2.19705   5.49262
    5730.00   4.758155     0.8302E+00  -2.20258   5.50645
    5750.00   4.759668     0.8204E+00  -2.20777   5.51942
    5770.00   4.761176     0.8096E+00  -2.21351   5.53377
    5790.00   4.762679     0.8031E+00  -2.21701   5.54251
    5810.00   4.764176     0.7911E+00  -2.22357   5.55892
    5830.00   4.765669     0.7825E+00  -2.22832   5.57081
    5850.00   4.767156     0.7737E+00  -2.23320   5.58300
    5870.00   4.768638     0.7622E+00  -2.23970   5.59925
    5890.00   4.770115     0.7540E+00  -2.24442   5.61104
    5910.00   4.771587     0.7459E+00  -2.24913   5.62283
    5930.00   4.773055     0.7377E+00  -2.25390   5.63474
    5950.00   4.774517     0.7277E+00  -2.25982   5.64955
    5970.00   4.775974     0.7211E+00  -2.26380   5.65950
    5990.00   4.777427     0.7126E+00  -2.26895   5.67238
    6010.00   4.778874     0.7043E+00  -2.27404   5.68510
    6030.00   4.780317     0.6960E+00  -2.27920   5.69800
    6050.00   4.781755     0.6863E+00  -2.28530   5.71326
    6070.00   4.783189     0.6785E+00  -2.29021   5.72552
    6090.00   4.784617     0.6706E+00  -2.29531   5.73827
    6110.00   4.786041     0.6620E+00  -2.30090   5.75224
    6130.00   4.787460     0.6555E+00  -2.30524   5.76310
    6150.00   4.788875     0.6483E+00  -2.30998   5.77495
    6170.00   4.790285     0.6417E+00  -2.31446   5.78614
    6190.00   4.791691     0.6341E+00  -2.31961   5.79903
    6210.00   4.793092     0.6273E+00  -2.32429   5.81074
    6230.00   4.794488     0.6191E+00  -2.33001   5.82503
    6250.00   4.795880     0.6111E+00  -2.33565   5.83913
    6270.00   4.797267     0.6042E+00  -2.34062   5.85155
    6290.00   4.798651     0.5977E+00  -2.34529   5.86321
    6310.00   4.800029     0.5906E+00  -2.35050   5.87625
    6330.00   4.801404     0.5851E+00  -2.35455   5.88638
    6350.00   4.802773     0.5777E+00  -2.36008   5.90020
    6370.00   4.804139     0.5723E+00  -2.36415   5.91038
    6390.00   4.805501     0.5646E+00  -2.37003   5.92508
    6420.00   4.807535     0.5555E+00  -2.37710   5.94276
    6460.00   4.810232     0.5427E+00  -2.38726   5.96814
    6500.00   4.812913     0.5307E+00  -2.39696   5.99241
    6540.00   4.815578     0.5188E+00  -2.40680   6.01700
    6580.00   4.818226     0.5076E+00  -2.41622   6.04056
    6620.00   4.820858     0.4961E+00  -2.42618   6.06544
    6660.00   4.823474     0.4853E+00  -2.43578   6.08945
    6700.00   4.826075     0.4748E+00  -2.44530   6.11326
    6740.00   4.828660     0.4642E+00  -2.45512   6.13780
    6780.00   4.831230     0.4541E+00  -2.46461   6.16152
    6820.00   4.833784     0.4442E+00  -2.47419   6.18547
    6860.00   4.836324     0.4348E+00  -2.48348   6.20870
    6900.00   4.838849     0.4253E+00  -2.49305   6.23263
    6940.00   4.841359     0.4163E+00  -2.50242   6.25605
    6980.00   4.843855     0.4074E+00  -2.51172   6.27931
    7020.00   4.846337     0.3986E+00  -2.52121   6.30302
    7060.00   4.848804     0.3904E+00  -2.53030   6.32575
    7100.00   4.851258     0.3821E+00  -2.53956   6.34891
    7140.00   4.853698     0.3742E+00  -2.54869   6.37172
    7180.00   4.856124     0.3664E+00  -2.55789   6.39472
    7220.00   4.858537     0.3588E+00  -2.56695   6.41738
    7260.00   4.860937     0.3513E+00  -2.57606   6.44016
    7300.00   4.863323     0.3442E+00  -2.58503   6.46258
    7340.00   4.865696     0.3370E+00  -2.59410   6.48525
    7380.00   4.868056     0.3303E+00  -2.60294   6.50735
    7420.00   4.870404     0.3234E+00  -2.61206   6.53015
    7460.00   4.872739     0.3168E+00  -2.62099   6.55248
    7500.00   4.875061     0.3105E+00  -2.62968   6.57421
    7540.00   4.877371     0.3043E+00  -2.63851   6.59628
    7580.00   4.879669     0.2984E+00  -2.64696   6.61741
    7620.00   4.881955     0.2925E+00  -2.65565   6.63912
    7660.00   4.884229     0.2868E+00  -2.66428   6.66069
    7700.00   4.886491     0.2811E+00  -2.67294   6.68234
    7740.00   4.888741     0.2756E+00  -2.68143   6.70358
    7780.00   4.890980     0.2703E+00  -2.68992   6.72481
    7820.00   4.893207     0.2651E+00  -2.69841   6.74603
    7860.00   4.895422     0.2600E+00  -2.70683   6.76708
    7900.00   4.897627     0.2550E+00  -2.71523   6.78807
    7940.00   4.899820     0.2501E+00  -2.72359   6.80898
    7980.00   4.902003     0.2454E+00  -2.73188   6.82969
    8020.00   4.904174     0.2407E+00  -2.74028   6.85071
    8060.00   4.906335     0.2362E+00  -2.74851   6.87128
    8100.00   4.908485     0.2318E+00  -2.75662   6.89155
    8140.00   4.910625     0.2275E+00  -2.76486   6.91214
    8180.00   4.912753     0.2233E+00  -2.77289   6.93222
    8220.00   4.914872     0.2192E+00  -2.78095   6.95238
    8260.00   4.916980     0.2152E+00  -2.78903   6.97257
    8300.00   4.919078     0.2112E+00  -2.79702   6.99255
    8340.00   4.921166     0.2073E+00  -2.80511   7.01277
    8380.00   4.923244     0.2036E+00  -2.81306   7.03264
    8420.00   4.925312     0.2000E+00  -2.82084   7.05210
    8460.00   4.927370     0.1964E+00  -2.82875   7.07187
    8500.00   4.929419     0.1928E+00  -2.83657   7.09142
    8540.00   4.931458     0.1894E+00  -2.84434   7.11085
    8580.00   4.933487     0.1861E+00  -2.85209   7.13021
    8620.00   4.935507     0.1828E+00  -2.85980   7.14950
    8660.00   4.937518     0.1796E+00  -2.86746   7.16865
    8700.00   4.939519     0.1765E+00  -2.87513   7.18781
    8740.00   4.941511     0.1734E+00  -2.88275   7.20688
    8780.00   4.943495     0.1704E+00  -2.89036   7.22590
    8820.00   4.945469     0.1674E+00  -2.89799   7.24497
    8860.00   4.947433     0.1645E+00  -2.90550   7.26374
    8900.00   4.949390     0.1617E+00  -2.91303   7.28258
    8940.00   4.951338     0.1590E+00  -2.92041   7.30104
    8980.00   4.953277     0.1562E+00  -2.92798   7.31995
    9020.00   4.955207     0.1537E+00  -2.93524   7.33811
    9060.00   4.957129     0.1511E+00  -2.94257   7.35643
    9100.00   4.959042     0.1485E+00  -2.95015   7.37537
    9140.00   4.960946     0.1460E+00  -2.95730   7.39326
    9180.00   4.962843     0.1436E+00  -2.96456   7.41140
    9220.00   4.964731     0.1413E+00  -2.97172   7.42929
    9260.00   4.966611     0.1389E+00  -2.97895   7.44738
    9300.00   4.968483     0.1367E+00  -2.98613   7.46531
    9340.00   4.970347     0.1344E+00  -2.99331   7.48326
    9380.00   4.972203     0.1322E+00  -3.00040   7.50101
    9420.00   4.974051     0.1301E+00  -3.00751   7.51876
    9460.00   4.975891     0.1280E+00  -3.01460   7.53651
    9500.00   4.977724     0.1259E+00  -3.02164   7.55409
    9540.00   4.979548     0.1239E+00  -3.02865   7.57161
    9580.00   4.981365     0.1219E+00  -3.03561   7.58903
    9620.00   4.983175     0.1200E+00  -3.04258   7.60646
    9660.00   4.984977     0.1181E+00  -3.04948   7.62371
    9700.00   4.986772     0.1163E+00  -3.05638   7.64094
    9740.00   4.988559     0.1144E+00  -3.06347   7.65867
    9780.00   4.990339     0.1126E+00  -3.07017   7.67544
    9820.00   4.992111     0.1109E+00  -3.07694   7.69235
    9860.00   4.993877     0.1092E+00  -3.08372   7.70930
    9900.00   4.995635     0.1075E+00  -3.09047   7.72618
    9940.00   4.997386     0.1058E+00  -3.09724   7.74311
    9980.00   4.999130     0.1042E+00  -3.10395   7.75988
   10020.00   5.000868     0.1026E+00  -3.11064   7.77659
   20000.00   5.301030     0.6947E-02  -4.28001  10.70002
   40000.00   5.602060     0.4480E-03  -5.47052  13.67630
   60000.00   5.778151     0.8917E-04  -6.17157  15.42892
   80000.00   5.903090     0.2828E-04  -6.67033  16.67582
  100000.00   6.000000     0.1159E-04  -7.05779  17.64449
  120000.00   6.079181     0.5586E-05  -7.37472  18.43681
  140000.00   6.146128     0.3012E-05  -7.64287  19.10717
  160000.00   6.204120     0.1764E-05  -7.87527  19.68818
